StartTime: 2018-11-17 10:22:35.946
Time(s)	ax(g)	ay(g)	az(g)	AngleX(deg)	AngleY(deg)	AngleZ(deg)	T(Â°) 
319.826	0.1045	0.0879	1.0264	3.8727	-2.0490	-2.3621	17.3500 
319.846	0.1035	0.0913	1.0200	3.8892	-2.0544	-2.3456	17.3300 
319.865	0.1030	0.0962	1.0200	3.9056	-2.0599	-2.3291	17.3300 
319.969	0.1021	0.0986	1.0254	3.9221	-2.0599	-2.3126	17.3500 
319.980	0.1074	0.1016	1.0264	3.9386	-2.0654	-2.2852	17.3500 
319.980	0.1108	0.1035	1.0254	3.9441	-2.0764	-2.2577	17.3400 
319.980	0.1099	0.1035	1.0308	3.9441	-2.0874	-2.2247	17.3600 
319.980	0.1113	0.0957	1.0273	3.9496	-2.0929	-2.1918	17.3600 
319.986	0.1050	0.0991	1.0273	3.9606	-2.0984	-2.1643	17.3500 
320.006	0.1045	0.0952	1.0254	3.9771	-2.0984	-2.1313	17.3600 
320.131	0.1084	0.1069	1.0220	3.9935	-2.1094	-2.0984	17.3700 
320.138	0.1138	0.1074	1.0234	4.0100	-2.1149	-2.0709	17.3700 
320.138	0.1143	0.0991	1.0249	4.0100	-2.1259	-2.0380	17.3600 
320.138	0.1094	0.0991	1.0229	4.0155	-2.1313	-2.0050	17.3800 
320.138	0.1108	0.0986	1.0249	4.0155	-2.1368	-1.9720	17.3700 
320.138	0.1074	0.0938	1.0264	4.0155	-2.1313	-1.9501	17.3700 
320.144	0.1035	0.0933	1.0259	4.0210	-2.1259	-1.9281	17.3800 
320.166	0.1055	0.0972	1.0234	4.0265	-2.1259	-1.9116	17.3700 
320.185	0.1104	0.1001	1.0225	4.0375	-2.1259	-1.8951	17.3900 
320.207	0.1094	0.1025	1.0200	4.0540	-2.1259	-1.8896	17.3900 
320.229	0.1021	0.0996	1.0254	4.0649	-2.1149	-1.8951	17.3800 
320.326	0.1016	0.1030	1.0234	4.0649	-2.0984	-1.9061	17.4000 
320.337	0.1064	0.1089	1.0254	4.0704	-2.0874	-1.9171	17.3900 
320.337	0.1094	0.1099	1.0288	4.0704	-2.0819	-1.9226	17.3900 
320.337	0.1094	0.0952	1.0322	4.0704	-2.0874	-1.9281	17.4000 
320.338	0.1064	0.0952	1.0352	4.0649	-2.0874	-1.9391	17.4000 
320.344	0.1050	0.1025	1.0288	4.0759	-2.0819	-1.9446	17.3900 
320.362	0.1021	0.1055	1.0234	4.0869	-2.0819	-1.9391	17.3900 
320.382	0.1001	0.1045	1.0205	4.0979	-2.0819	-1.9391	17.3900 
320.405	0.1001	0.1030	1.0186	4.1034	-2.0819	-1.9446	17.4100 
320.427	0.1030	0.1021	1.0229	4.1089	-2.0819	-1.9556	17.4000 
320.530	0.1069	0.0952	1.0293	4.1034	-2.0819	-1.9775	17.4100 
320.541	0.1099	0.0957	1.0313	4.1089	-2.0874	-2.0050	17.3900 
320.541	0.1167	0.0991	1.0273	4.1144	-2.0874	-2.0215	17.4100 
320.541	0.1191	0.1030	1.0273	4.1418	-2.0929	-2.0270	17.4100 
320.541	0.1201	0.1055	1.0254	4.1748	-2.0929	-2.0435	17.4100 
320.547	0.1157	0.1006	1.0259	4.2078	-2.0819	-2.0709	17.4200 
320.562	0.1025	0.1030	1.0259	4.2352	-2.0654	-2.1094	17.4300 
320.585	0.0996	0.0962	1.0249	4.2572	-2.0490	-2.1533	17.4100 
320.607	0.0996	0.0986	1.0254	4.2737	-2.0270	-2.2028	17.4200 
320.628	0.1001	0.1011	1.0205	4.2902	-2.0105	-2.2577	17.4200 
320.729	0.0981	0.1045	1.0190	4.3066	-1.9940	-2.3016	17.4100 
320.741	0.1001	0.1055	1.0186	4.3176	-1.9775	-2.3346	17.4400 
320.741	0.1011	0.1060	1.0264	4.3341	-1.9611	-2.3621	17.4200 
320.741	0.1021	0.1084	1.0269	4.3451	-1.9501	-2.3895	17.4200 
320.741	0.1001	0.1006	1.0288	4.3506	-1.9336	-2.4115	17.4400 
320.757	0.0972	0.0957	1.0269	4.3561	-1.9226	-2.4390	17.4400 
320.771	0.0942	0.0981	1.0225	4.3561	-1.9116	-2.4500	17.4500 
320.781	0.0952	0.1050	1.0229	4.3671	-1.9061	-2.4500	17.4400 
320.804	0.1030	0.1094	1.0254	4.3726	-1.9061	-2.4280	17.4500 
320.824	0.1055	0.1123	1.0249	4.3781	-1.9171	-2.4060	17.4600 
320.846	0.1025	0.1064	1.0259	4.3726	-1.9281	-2.3895	17.4500 
320.864	0.0962	0.0981	1.0273	4.3671	-1.9336	-2.3785	17.4500 
320.887	0.0908	0.0942	1.0264	4.3616	-1.9336	-2.3730	17.4500 
320.983	0.0913	0.0962	1.0244	4.3616	-1.9391	-2.3566	17.4500 
320.994	0.0977	0.1021	1.0190	4.3671	-1.9501	-2.3236	17.4400 
320.994	0.0986	0.1074	1.0225	4.3781	-1.9666	-2.2742	17.4500 
320.994	0.1030	0.1089	1.0239	4.3890	-1.9830	-2.2192	17.4600 
320.994	0.1060	0.1060	1.0269	4.3890	-2.0050	-2.1753	17.4600 
321.000	0.1016	0.1021	1.0254	4.3835	-2.0270	-2.1423	17.4700 
321.019	0.0996	0.1021	1.0210	4.3835	-2.0490	-2.1094	17.4700 
321.136	0.1079	0.1060	1.0269	4.3781	-2.0654	-2.0654	17.4600 
321.142	0.1123	0.1055	1.0269	4.3781	-2.0874	-2.0160	17.4700 
321.144	0.1143	0.1089	1.0283	4.3835	-2.1094	-1.9666	17.4800 
321.144	0.1157	0.1074	1.0273	4.3781	-2.1204	-1.9281	17.4800 
321.145	0.1040	0.1055	1.0239	4.3781	-2.1259	-1.9116	17.4800 
321.145	0.1055	0.1025	1.0225	4.3671	-2.1259	-1.8896	17.4700 
321.159	0.1069	0.1016	1.0278	4.3506	-2.1149	-1.8842	17.4800 
321.178	0.1060	0.0991	1.0249	4.3286	-2.1094	-1.8842	17.4800 
321.198	0.1060	0.1069	1.0171	4.3231	-2.0984	-1.8951	17.4800 
321.218	0.1074	0.1064	1.0200	4.3231	-2.0874	-1.9006	17.4800 
321.238	0.1055	0.1025	1.0264	4.3176	-2.0764	-1.9116	17.4800 
321.347	0.1064	0.1011	1.0293	4.3121	-2.0654	-1.9281	17.4900 
321.365	0.1016	0.1035	1.0303	4.3066	-2.0544	-1.9501	17.4800 
321.366	0.1035	0.1079	1.0308	4.3066	-2.0380	-1.9775	17.5000 
321.366	0.1094	0.1104	1.0215	4.3066	-2.0270	-2.0105	17.4900 
321.366	0.1094	0.1152	1.0200	4.3066	-2.0160	-2.0544	17.4900 
321.386	0.1074	0.1152	1.0234	4.2847	-1.9995	-2.1039	17.5100 
321.405	0.1045	0.1030	1.0278	4.2462	-1.9775	-2.1533	17.5000 
321.412	0.0972	0.1016	1.0288	4.2023	-1.9501	-2.2137	17.5100 
321.423	0.0923	0.1006	1.0254	4.1583	-1.9226	-2.2687	17.5100 
321.436	0.0889	0.1025	1.0195	4.1199	-1.9006	-2.3181	17.5000 
321.457	0.0889	0.1050	1.0205	4.0814	-1.8896	-2.3511	17.5000 
321.552	0.0996	0.1060	1.0225	4.0485	-1.8842	-2.3730	17.5100 
321.564	0.0957	0.0977	1.0278	4.0045	-1.8896	-2.3895	17.5100 
321.564	0.0947	0.0923	1.0293	3.9606	-1.8842	-2.4060	17.5200 
321.564	0.0947	0.0962	1.0313	3.9221	-1.8896	-2.4060	17.5100 
321.564	0.1001	0.1006	1.0229	3.8947	-1.9061	-2.4005	17.5200 
321.575	0.1084	0.0977	1.0249	3.8727	-1.9281	-2.3840	17.5300 
321.595	0.1064	0.0952	1.0244	3.8452	-1.9501	-2.3621	17.5300 
321.614	0.1016	0.0928	1.0215	3.8177	-1.9666	-2.3456	17.5200 
321.635	0.0972	0.0918	1.0244	3.7958	-1.9775	-2.3291	17.5100 
321.655	0.0918	0.0962	1.0288	3.7738	-1.9940	-2.3071	17.5300 
321.755	0.0972	0.1001	1.0278	3.7408	-2.0160	-2.2742	17.5300 
321.766	0.0977	0.1055	1.0205	3.7024	-2.0325	-2.2577	17.5300 
321.766	0.0913	0.0938	1.0190	3.6475	-2.0380	-2.2632	17.5300 
321.766	0.0757	0.0742	1.0220	3.5815	-2.0435	-2.2961	17.5200 
321.767	0.0708	0.0713	1.0225	3.5156	-2.0544	-2.3291	17.5300 
321.774	0.0752	0.0811	1.0239	3.4662	-2.0874	-2.3456	17.5300 
321.793	0.0923	0.0918	1.0239	3.4277	-2.1478	-2.3456	17.5600 
321.814	0.1074	0.1123	1.0249	3.3893	-2.2083	-2.3236	17.5500 
321.837	0.1143	0.1147	1.0273	3.3344	-2.2577	-2.2852	17.5600 
321.857	0.1191	0.1123	1.0366	3.2574	-2.2906	-2.2522	17.5500 
321.972	0.1187	0.1157	1.0400	3.1696	-2.2852	-2.2412	17.5600 
321.986	0.1128	0.1147	1.0313	3.0762	-2.2577	-2.2467	17.5600 
321.987	0.1025	0.1074	1.0332	2.9608	-2.2083	-2.2467	17.5500 
321.987	0.0938	0.1025	1.0396	2.8400	-2.1313	-2.2357	17.5600 
321.987	0.0981	0.0977	1.0381	2.7081	-2.0380	-2.2247	17.5700 
321.987	0.0967	0.0996	1.0293	2.5818	-1.9501	-2.2028	17.5800 
321.994	0.0947	0.0991	1.0195	2.4609	-1.8732	-2.1808	17.5800 
322.014	0.0806	0.0903	1.0210	2.3456	-1.8018	-2.1753	17.5700 
322.033	0.0693	0.0806	1.0215	2.2357	-1.7249	-2.1808	17.5700 
322.054	0.0591	0.0752	1.0283	2.1313	-1.6534	-2.1808	17.5700 
322.075	0.0586	0.0781	1.0317	2.0270	-1.5875	-2.1588	17.5800 
322.188	0.0688	0.0933	1.0273	1.9391	-1.5326	-2.1149	17.5800 
322.199	0.0732	0.0967	1.0283	1.8622	-1.4832	-2.0764	17.5700 
322.199	0.0586	0.0996	1.0308	1.7963	-1.4337	-2.0709	17.5800 
322.200	0.0508	0.1001	1.0254	1.7468	-1.3788	-2.0929	17.5900 
322.200	0.0479	0.0957	1.0254	1.6864	-1.3293	-2.1259	17.5800 
322.200	0.0498	0.0811	1.0293	1.6260	-1.2744	-2.1753	17.5800 
322.223	0.0503	0.0708	1.0269	1.5656	-1.2305	-2.2192	17.5900 
322.231	0.0591	0.0806	1.0210	1.5051	-1.1920	-2.2632	17.5900 
322.251	0.0596	0.0801	1.0166	1.4392	-1.1481	-2.3071	17.6000 
322.272	0.0576	0.0688	1.0195	1.3788	-1.1041	-2.3511	17.5900 
322.294	0.0591	0.0679	1.0234	1.3239	-1.0657	-2.3895	17.5900 
322.401	0.0786	0.0601	1.0342	1.2689	-1.0382	-2.4005	17.5900 
322.413	0.0957	0.0508	1.0371	1.2085	-1.0382	-2.3785	17.5900 
322.413	0.1270	0.0508	1.0132	1.1371	-1.0547	-2.3346	17.6000 
322.413	0.1479	0.0747	0.9644	1.1041	-1.0876	-2.2632	17.6000 
322.413	0.1733	0.0698	0.9326	1.0876	-1.1536	-2.1863	17.6100 
322.419	0.1753	0.0264	0.9893	0.9888	-1.2469	-2.1368	17.6000 
322.434	0.1943	-0.0063	1.1108	0.7965	-1.3403	-2.1478	17.6100 
322.458	0.1973	-0.0029	1.1299	0.6097	-1.4557	-2.1643	17.6000 
322.478	0.1572	0.0215	1.0991	0.4944	-1.5656	-2.1753	17.6100 
322.490	0.1372	0.0283	1.0864	0.4504	-1.6699	-2.1643	17.6300 
322.607	0.1279	0.0386	1.0654	0.4614	-1.7688	-2.1039	17.6200 
322.618	0.1289	0.0620	1.0186	0.5273	-1.8622	-1.9720	17.6100 
322.618	0.1582	0.0947	0.9482	0.6427	-1.9556	-1.7523	17.6000 
322.620	0.1787	0.1069	0.9111	0.7581	-2.0599	-1.4886	17.6200 
322.620	0.1753	0.0859	0.9316	0.8350	-2.1423	-1.2360	17.6200 
322.620	0.1626	0.0713	0.9663	0.8295	-2.2083	-1.0382	17.6200 
322.629	0.1753	0.0679	0.9966	0.7635	-2.2852	-0.8459	17.6100 
322.649	0.1875	0.0854	0.9805	0.7031	-2.4005	-0.6317	17.6200 
322.669	0.2007	0.1187	0.9775	0.6482	-2.5543	-0.3845	17.6200 
322.688	0.2075	0.0991	1.0049	0.5658	-2.7191	-0.0934	17.6400 
322.708	0.2095	0.0410	1.0703	0.4395	-2.8510	0.2087	17.6300 
322.817	0.2090	0.0620	1.0303	0.3680	-2.9388	0.5109	17.6200 
322.828	0.1919	0.0991	1.0098	0.3571	-2.9553	0.7855	17.6400 
322.828	0.1860	0.1040	1.0195	0.3680	-2.9553	1.0382	17.6300 
322.828	0.1787	0.1035	1.0566	0.3790	-2.9333	1.2689	17.6400 
322.828	0.1924	0.1089	1.0415	0.4065	-2.8729	1.4941	17.6200 
322.835	0.2061	0.1475	1.0112	0.4779	-2.7960	1.7249	17.6400 
322.855	0.2104	0.1582	1.0151	0.5768	-2.7191	1.9501	17.6400 
322.975	0.2095	0.1362	1.0313	0.6592	-2.6477	2.1863	17.6300 
322.982	0.2036	0.1196	1.0283	0.7086	-2.5653	2.4280	17.6600 
322.982	0.1978	0.1265	1.0166	0.7416	-2.4390	2.6477	17.6400 
322.982	0.2017	0.1416	1.0156	0.7690	-2.3126	2.8839	17.6500 
322.982	0.2085	0.1113	1.0566	0.7471	-2.1973	3.1586	17.6600 
322.982	0.2104	0.0820	1.1035	0.6757	-2.0874	3.4772	17.6600 
322.991	0.2251	0.0781	1.1260	0.5933	-1.9830	3.8562	17.6600 
323.008	0.2305	0.0864	1.1245	0.5109	-1.8842	4.2902	17.6600 
323.030	0.2207	0.1240	1.1450	0.4449	-1.7908	4.7241	17.6700 
323.053	0.2178	0.1353	1.1636	0.3845	-1.6864	5.1196	17.6800 
323.074	0.2114	0.1416	1.1255	0.3406	-1.5546	5.4327	17.6800 
323.180	0.1768	0.1284	1.0645	0.3351	-1.4227	5.6799	17.6600 
323.192	0.1416	0.0864	1.0361	0.3790	-1.2964	5.9106	17.6800 
323.192	0.0903	0.0098	1.0112	0.5164	-1.2524	6.2018	17.6800 
323.192	0.0776	-0.0171	1.0024	0.7690	-1.2964	6.6028	17.6600 
323.192	0.0615	-0.0381	0.9619	1.0822	-1.3678	7.0642	17.6800 
323.192	0.0332	-0.0625	0.9692	1.3898	-1.4337	7.4872	17.6900 
323.212	-0.0215	-0.0288	1.0288	1.6150	-1.4392	7.7563	17.6600 
323.236	-0.0430	-0.0381	1.0176	1.7303	-1.3623	7.8772	17.6700 
323.245	-0.0864	-0.0518	1.0425	1.8182	-1.2140	7.9047	17.6700 
323.265	-0.0967	-0.0366	1.0635	1.8677	-1.0437	7.8937	17.6900 
323.285	-0.0635	-0.0063	1.1128	1.8182	-0.9064	7.8772	17.7000 
323.391	-0.0220	0.0039	1.1064	1.7523	-0.8624	7.8552	17.7000 
323.405	0.0107	0.0166	1.0723	1.7139	-0.8844	7.7893	17.6800 
323.405	0.0166	0.0239	1.0488	1.6699	-0.9283	7.6959	17.6700 
323.405	0.0220	0.0215	0.9927	1.6699	-0.9833	7.6025	17.6900 
323.405	0.0269	0.0317	0.9590	1.7029	-1.0547	7.4872	17.6800 
323.411	0.0400	0.0527	0.9385	1.7468	-1.1700	7.3663	17.7000 
323.427	0.0469	0.0498	0.9546	1.7798	-1.2854	7.2180	17.6900 
323.446	0.0474	0.0444	0.9561	1.8127	-1.3733	7.0148	17.7000 
323.469	0.0361	0.0386	0.9727	1.8402	-1.4227	6.7950	17.6900 
323.489	0.0327	0.0576	0.9727	1.8622	-1.4227	6.5808	17.7100 
323.596	0.0366	0.0640	0.9795	1.8457	-1.3898	6.3776	17.7000 
323.609	0.0425	0.0615	1.0049	1.7743	-1.3293	6.1963	17.6800 
323.609	0.0474	0.0645	1.0054	1.6919	-1.2744	6.0205	17.6800 
323.609	0.0586	0.0835	0.9829	1.6040	-1.2305	5.8502	17.6800 
323.609	0.0664	0.0972	0.9761	1.5271	-1.2085	5.6799	17.6900 
323.615	0.0693	0.1016	0.9941	1.4502	-1.1810	5.4877	17.6800 
323.628	0.0654	0.0996	0.9971	1.3843	-1.1536	5.2679	17.6900 
323.652	0.0581	0.1108	1.0078	1.3568	-1.1041	5.0153	17.6900 
323.674	0.0420	0.1284	1.0112	1.3843	-1.0767	4.7516	17.7100 
323.683	0.0366	0.1489	1.0171	1.4612	-1.0712	4.4769	17.7000 
323.703	0.0366	0.1655	1.0122	1.5656	-1.0822	4.1803	17.7000 
323.803	0.0303	0.1606	1.0293	1.6425	-1.0767	3.8672	17.6900 
323.819	0.0132	0.1763	1.0381	1.6754	-1.0272	3.5211	17.6900 
323.819	-0.0020	0.2134	1.0386	1.6864	-0.9723	3.1696	17.6900 
323.819	0.0161	0.1792	1.0464	1.6315	-0.9338	2.8455	17.6900 
323.819	0.0181	0.1343	1.0522	1.5106	-0.9503	2.5928	17.7000 
323.836	0.0210	0.1421	1.0400	1.3788	-1.0107	2.3895	17.7000 
323.842	0.0479	0.1792	1.0361	1.2469	-1.0986	2.2083	17.6900 
323.860	0.0879	0.1558	1.0781	1.0437	-1.2030	1.9830	17.7000 
323.881	0.1421	0.0889	1.1021	0.8350	-1.4063	1.6919	17.6900 
323.902	0.1064	0.0166	1.1240	0.7416	-1.6809	1.3843	17.6900 
324.011	0.0947	-0.0854	1.2026	0.7086	-1.9611	1.0602	17.6900 
324.023	0.1250	-0.1367	1.2065	0.7196	-2.2192	0.8185	17.6900 
324.023	0.1470	-0.1377	1.1211	0.8679	-2.4335	0.7855	17.6900 
324.023	0.1499	-0.1348	1.1035	1.0657	-2.5983	0.8734	17.7000 
324.023	0.1816	-0.1445	1.0845	1.2140	-2.7191	1.0052	17.7000 
324.029	0.1841	-0.1440	1.0752	1.3568	-2.8070	1.0931	17.7100 
324.045	0.1768	-0.1431	1.0625	1.4502	-2.8345	1.0767	17.7000 
324.069	0.1367	-0.1338	1.0938	1.4996	-2.8400	0.9833	17.7000 
324.092	0.1230	-0.0967	1.1074	1.5106	-2.8290	0.8899	17.7000 
324.103	0.1084	-0.0620	1.0522	1.5436	-2.7850	0.8459	17.7100 
324.213	0.1055	-0.0776	1.0181	1.5601	-2.7136	0.8185	17.6900 
324.221	0.0957	-0.0752	0.9668	1.6095	-2.6257	0.8130	17.7100 
324.221	0.0952	-0.0527	0.9365	1.6974	-2.5214	0.8185	17.7100 
324.221	0.0947	-0.0225	0.9136	1.8073	-2.4225	0.8240	17.7000 
324.221	0.0977	0.0029	0.9131	1.9171	-2.3401	0.8240	17.7100 
324.221	0.1177	0.0264	0.9292	2.0050	-2.2852	0.8130	17.7100 
324.246	0.1240	0.0205	0.9385	2.0270	-2.2302	0.7910	17.7000 
324.259	0.1245	0.0132	0.9575	1.9885	-2.1643	0.7526	17.7200 
324.278	0.1343	0.0293	0.9697	1.9171	-2.1204	0.7251	17.7200 
324.298	0.1377	0.0264	1.0073	1.8018	-2.1204	0.7086	17.7200 
324.318	0.1387	0.0088	1.0293	1.6699	-2.1478	0.6976	17.7400 
324.424	0.1318	0.0039	1.0288	1.5601	-2.2028	0.7031	17.7200 
324.436	0.1333	0.0151	1.0166	1.4667	-2.2577	0.7361	17.7300 
324.436	0.1489	0.0376	1.0181	1.3788	-2.2852	0.8130	17.7400 
324.436	0.1602	0.0483	1.0112	1.3129	-2.3016	0.9338	17.7400 
324.436	0.1748	0.0781	0.9907	1.2909	-2.3236	1.0876	17.7200 
324.443	0.1831	0.0986	0.9873	1.3019	-2.3730	1.2415	17.7300 
324.458	0.1978	0.0879	0.9897	1.3074	-2.4445	1.3623	17.7500 
324.480	0.1909	0.0952	1.0010	1.3129	-2.5104	1.4557	17.7400 
324.503	0.1880	0.1079	0.9961	1.3239	-2.5653	1.5326	17.7500 
324.526	0.1855	0.1113	1.0054	1.3239	-2.6093	1.6095	17.7400 
324.634	0.1841	0.1172	1.0249	1.3239	-2.6422	1.6919	17.7400 
324.647	0.1885	0.1270	1.0288	1.3458	-2.6862	1.7688	17.7500 
324.647	0.1953	0.1270	1.0347	1.3843	-2.7356	1.8622	17.7500 
324.647	0.2021	0.1196	1.0347	1.4337	-2.7850	1.9775	17.7500 
324.647	0.2031	0.1309	1.0278	1.5106	-2.7850	2.1149	17.7600 
324.647	0.2021	0.1465	1.0151	1.6260	-2.7740	2.2742	17.7500 
324.657	0.1865	0.1475	1.0625	1.7413	-2.7246	2.4280	17.7500 
324.676	0.1636	0.1333	1.1494	1.8292	-2.6367	2.5488	17.7500 
324.696	0.1646	0.1660	1.2744	1.8896	-2.4829	2.6147	17.7400 
324.716	0.1592	0.2070	1.2427	1.9391	-2.2906	2.6367	17.7500 
324.735	0.1250	0.1948	1.1157	1.9611	-2.0380	2.5653	17.7600 
324.851	0.0981	0.1274	1.0015	1.9885	-1.8182	2.4609	17.7600 
324.864	0.0718	-0.0366	0.8779	2.0929	-1.7358	2.4280	17.7600 
324.864	0.0444	-0.1138	0.9155	2.1918	-1.8182	2.4609	17.7500 
324.864	0.0322	-0.0923	1.0967	2.0380	-1.9336	2.2906	17.7600 
324.864	0.0190	-0.0674	1.1016	1.8018	-2.0160	2.1204	17.7500 
324.864	-0.0313	-0.0894	1.0820	1.5930	-1.9720	2.0105	17.7500 
324.883	-0.0273	-0.1123	1.0986	1.3458	-1.8732	1.9171	17.7400 
324.895	0.0000	-0.0664	1.0830	1.0602	-1.7743	1.7963	17.7500 
325.003	0.0317	-0.0361	1.0513	0.7855	-1.7084	1.6315	17.7400 
325.019	0.0396	-0.0322	1.0317	0.5493	-1.6974	1.4667	17.7500 
325.019	0.0400	-0.0376	1.0171	0.3296	-1.7194	1.3293	17.7600 
325.019	0.0439	-0.0303	0.9883	0.1099	-1.7468	1.2360	17.7500 
325.019	0.0732	-0.0073	0.9595	-0.1208	-1.7743	1.1865	17.7500 
325.036	0.0908	0.0073	0.9395	-0.3735	-1.7798	1.1371	17.7600 
325.042	0.0928	0.0244	0.9272	-0.6097	-1.7578	1.0272	17.7500 
325.062	0.0869	0.0181	0.9312	-0.8295	-1.7358	0.8624	17.7600 
325.079	0.0605	0.0210	0.9717	-1.0107	-1.7084	0.6427	17.7500 
325.104	0.0576	0.0200	0.9941	-1.1865	-1.6534	0.3790	17.7500 
325.212	0.0488	0.0269	0.9883	-1.3403	-1.5710	0.1154	17.7500 
325.223	0.0469	0.0400	0.9692	-1.4722	-1.4667	-0.1099	17.7300 
325.223	0.0518	0.0596	0.9546	-1.5875	-1.3623	-0.3076	17.7400 
325.223	0.0449	0.0640	0.9595	-1.7194	-1.2360	-0.5164	17.7400 
325.223	0.0430	0.0806	0.9541	-1.8732	-1.0602	-0.7965	17.7500 
325.223	0.0225	0.0762	0.9590	-2.0215	-0.8405	-1.1261	17.7400 
325.232	-0.0132	0.0806	0.9819	-2.1368	-0.6482	-1.4612	17.7400 
325.252	-0.0215	0.1016	1.0088	-2.2247	-0.5219	-1.7743	17.7600 
325.272	-0.0098	0.1099	1.0176	-2.2906	-0.4559	-2.0654	17.7500 
325.294	-0.0132	0.0767	1.0313	-2.3730	-0.4340	-2.3785	17.7500 
325.314	-0.0400	0.0283	1.0859	-2.4884	-0.4889	-2.7686	17.7400 
325.417	-0.0469	0.0068	1.1152	-2.6093	-0.6207	-3.1641	17.7500 
325.434	-0.0347	0.0181	1.0908	-2.6752	-0.8405	-3.4607	17.7500 
325.434	-0.0151	0.0493	1.0796	-2.6642	-1.1096	-3.6420	17.7500 
325.434	0.0835	0.0405	1.1719	-2.6697	-1.4392	-3.7628	17.7600 
325.434	0.1836	0.0435	1.2041	-2.6477	-1.8896	-3.8507	17.7500 
325.452	0.1782	-0.0195	1.2202	-2.5323	-2.3511	-3.9716	17.7400 
325.458	0.1782	-0.0796	1.2251	-2.3950	-2.7301	-4.1638	17.7300 
325.474	0.2275	-0.1196	1.1426	-2.1698	-3.0652	-4.2517	17.7400 
325.495	0.2539	-0.1509	1.0562	-1.9171	-3.3673	-4.1693	17.7400 
325.522	0.2837	-0.2271	1.0557	-1.7303	-3.6145	-4.0045	17.7300 
325.622	0.2808	-0.2100	1.0684	-1.6205	-3.7299	-3.8947	17.7500 
325.635	0.2495	-0.1699	1.1099	-1.6095	-3.7463	-3.9276	17.7700 
325.635	0.1987	-0.1719	1.1445	-1.6644	-3.7244	-4.0759	17.7600 
325.635	0.1367	-0.1343	1.1079	-1.7249	-3.6365	-4.2517	17.7700 
325.635	0.1304	-0.0894	1.0215	-1.7633	-3.4662	-4.3726	17.7500 
325.641	0.1313	-0.0630	0.8921	-1.7743	-3.2684	-4.4000	17.7600 
325.655	0.1377	-0.0625	0.8579	-1.7523	-3.0707	-4.3451	17.7500 
325.675	0.1587	-0.0513	0.8511	-1.6974	-2.9004	-4.2792	17.7600 
325.691	0.1636	-0.0562	0.8799	-1.6425	-2.7631	-4.2517	17.7500 
325.710	0.1509	-0.0415	0.9121	-1.5271	-2.6807	-4.2737	17.7600 
325.831	0.1431	-0.0342	0.9258	-1.3788	-2.6093	-4.2957	17.7400 
325.837	0.1382	-0.0381	0.9497	-1.2469	-2.5433	-4.2737	17.7700 
325.837	0.1431	-0.0171	0.9678	-1.1481	-2.4609	-4.2297	17.7600 
325.837	0.1621	0.0122	0.9980	-1.1096	-2.3730	-4.1583	17.7700 
325.837	0.1792	0.0259	1.0020	-1.1206	-2.3016	-4.0430	17.7700 
325.837	0.1963	0.0474	0.9883	-1.1481	-2.2522	-3.8837	17.7600 
325.850	0.1860	0.0293	0.9956	-1.2140	-2.1918	-3.7299	17.7500 
325.869	0.1650	0.0015	1.0039	-1.3184	-2.1039	-3.5870	17.7600 
325.891	0.1489	-0.0073	1.0015	-1.4063	-2.0050	-3.4442	17.7800 
325.911	0.1572	-0.0054	1.0034	-1.4612	-1.9226	-3.2520	17.7800 
325.931	0.1665	0.0313	1.0078	-1.4557	-1.8457	-3.0322	17.7600 
326.055	0.1772	0.0620	1.0024	-1.3898	-1.7798	-2.7960	17.7700 
326.061	0.1987	0.0771	1.0112	-1.3074	-1.7249	-2.5323	17.7700 
326.061	0.1904	0.0781	1.0264	-1.2140	-1.6479	-2.2467	17.7700 
326.061	0.1777	0.1113	1.0449	-1.0876	-1.5326	-1.9391	17.7800 
326.061	0.1963	0.1177	1.0527	-0.9778	-1.3843	-1.6040	17.7800 
326.061	0.2114	0.1182	1.0698	-0.8899	-1.2195	-1.2744	17.7700 
326.068	0.2017	0.1108	1.0679	-0.8075	-1.0272	-0.9778	17.7800 
326.089	0.1396	0.0488	1.0806	-0.7306	-0.8020	-0.7196	17.7800 
326.117	0.0894	-0.0024	1.1431	-0.6592	-0.5328	-0.4724	17.7800 
326.133	0.0620	0.0078	1.2832	-0.5603	-0.2582	-0.1758	17.7900 
326.154	0.0864	0.0708	1.2861	-0.3790	-0.0330	0.1923	17.7800 
326.269	0.0830	0.1001	1.2075	-0.1648	0.1373	0.5548	17.7800 
326.281	0.0322	0.0874	1.0640	0.0604	0.3186	0.8569	17.7900 
326.281	-0.0845	-0.0479	0.8936	0.2417	0.5054	1.0547	17.7800 
326.282	-0.1631	-0.1802	0.9331	0.3021	0.6702	1.1700	17.7700 
326.282	-0.1797	-0.2090	1.1255	0.1923	0.7910	1.2579	17.7600 
326.282	-0.1157	-0.1318	1.1841	0.0220	0.8514	1.4557	17.7800 
326.288	-0.0298	-0.0576	1.1226	-0.1648	0.8789	1.7468	17.7700 
326.308	-0.0029	-0.0469	1.0898	-0.3955	0.9229	2.0215	17.7800 
326.427	0.0210	-0.0513	1.0220	-0.6537	0.9393	2.2302	17.7700 
326.433	0.0127	-0.0425	0.9658	-0.8734	0.9174	2.3840	17.7700 
326.433	-0.0054	-0.0415	0.9268	-1.0382	0.8789	2.4774	17.7900 
326.433	-0.0107	-0.0508	0.9409	-1.1591	0.8405	2.5488	17.7700 
326.434	-0.0049	-0.0288	0.9644	-1.2140	0.8130	2.6532	17.7700 
326.434	0.0137	0.0176	0.9453	-1.2140	0.8020	2.7466	17.7800 
326.446	0.0356	0.0405	0.9380	-1.2195	0.8405	2.7795	17.7900 
326.465	0.0361	0.0415	0.9385	-1.2524	0.9119	2.6917	17.7800 
326.485	0.0024	0.0220	0.9204	-1.2964	1.0107	2.4829	17.7900 
326.505	-0.0288	0.0010	0.9272	-1.3458	1.1096	2.1808	17.7800 
326.527	-0.0557	-0.0073	0.9717	-1.4172	1.1865	1.8677	17.7500 
326.632	-0.0439	0.0059	0.9902	-1.4941	1.2469	1.5820	17.7900 
326.646	-0.0288	0.0396	0.9917	-1.5546	1.3129	1.3458	17.7700 
326.646	-0.0176	0.0620	0.9756	-1.5985	1.3788	1.1316	17.7800 
326.646	-0.0161	0.0913	0.9531	-1.6370	1.4282	0.8954	17.7800 
326.646	-0.0171	0.0928	0.9526	-1.6644	1.4392	0.6262	17.7700 
326.652	-0.0278	0.0840	0.9541	-1.6699	1.3898	0.3351	17.7700 
326.667	-0.0220	0.0781	0.9844	-1.6589	1.3019	0.0385	17.7800 
326.688	-0.0190	0.0767	1.0479	-1.6589	1.2085	-0.2472	17.7700 
326.712	-0.0210	0.1001	1.0669	-1.6315	1.1206	-0.5273	17.7700 
326.733	0.0029	0.1421	1.0762	-1.5875	1.0107	-0.7745	17.7700 
326.841	0.0142	0.1504	1.0840	-1.5326	0.8624	-0.9888	17.7700 
326.854	0.0215	0.1436	1.0903	-1.4777	0.6976	-1.1975	17.7700 
326.854	0.0186	0.1377	1.0703	-1.4063	0.5328	-1.3788	17.7800 
326.854	0.0142	0.1260	1.0762	-1.3623	0.3790	-1.5326	17.7600 
326.854	0.0459	0.0801	1.1719	-1.3843	0.2197	-1.6479	17.7600 
326.854	0.0908	0.0542	1.2773	-1.4832	0.0385	-1.7523	17.7700 
326.874	0.1128	0.0435	1.2583	-1.5326	-0.1483	-1.8512	17.7800 
326.885	0.1147	-0.0078	1.2295	-1.5875	-0.2856	-1.9446	17.7800 
326.904	0.0996	-0.1011	1.1226	-1.5765	-0.4010	-1.9226	17.7700 
326.923	0.0889	-0.1450	1.1050	-1.4667	-0.4504	-1.7688	17.7800 
326.946	0.1563	-0.1240	1.1196	-1.3623	-0.4889	-1.5436	17.7700 
327.054	0.2139	-0.0947	1.1011	-1.3293	-0.5438	-1.3788	17.7600 
327.068	0.2202	-0.1265	1.0596	-1.3843	-0.5658	-1.3568	17.7800 
327.068	0.1738	-0.1870	1.0591	-1.4832	-0.5603	-1.4502	17.7800 
327.068	0.0767	-0.2383	1.1006	-1.6205	-0.5219	-1.6534	17.7600 
327.068	0.0400	-0.1997	1.0713	-1.7194	-0.4614	-1.8457	17.7700 
327.074	0.0415	-0.1143	0.9722	-1.7908	-0.3516	-1.9171	17.7500 
327.088	0.0620	-0.0791	0.9248	-1.8567	-0.2307	-1.9116	17.7600 
327.111	0.1201	-0.0791	0.8403	-1.8951	-0.2142	-1.8292	17.7600 
327.135	0.1216	-0.0928	0.8384	-1.9281	-0.2692	-1.7523	17.7600 
327.141	0.0972	-0.1211	0.9092	-1.9940	-0.3351	-1.7578	17.7700 
327.161	0.0986	-0.1196	0.9541	-2.0654	-0.3900	-1.7633	17.7700 
327.270	0.1353	-0.0840	0.9683	-2.1313	-0.4504	-1.6699	17.7500 
327.282	0.1675	-0.0601	0.9668	-2.1863	-0.5219	-1.4941	17.7600 
327.283	0.1973	-0.0083	0.9497	-2.2137	-0.5988	-1.2634	17.7600 
327.283	0.1982	0.0049	0.9438	-2.2467	-0.6262	-1.0492	17.7700 
327.283	0.1567	-0.0093	0.9707	-2.2906	-0.5658	-0.9009	17.7600 
327.289	0.1387	-0.0229	0.9951	-2.3456	-0.4614	-0.7800	17.7800 
327.306	0.1377	-0.0151	1.0161	-2.3950	-0.3571	-0.6317	17.7700 
327.328	0.1440	-0.0034	1.0190	-2.4170	-0.2527	-0.4340	17.7500 
327.351	0.1372	0.0117	1.0137	-2.4225	-0.1208	-0.2307	17.7600 
327.360	0.1431	0.0098	1.0186	-2.4060	0.0110	-0.0494	17.7700 
327.478	0.1484	0.0122	1.0161	-2.3401	0.1263	0.1208	17.7700 
327.485	0.1406	0.0283	1.0288	-2.2083	0.2362	0.2966	17.7400 
327.485	0.1416	0.0820	1.0361	-2.0105	0.3296	0.4724	17.7700 
327.485	0.1567	0.1143	1.0303	-1.7633	0.4010	0.6702	17.7600 
327.485	0.1729	0.1450	1.0259	-1.4996	0.4614	0.9064	17.7500 
327.485	0.1724	0.1343	1.0278	-1.2634	0.5273	1.1261	17.7800 
327.499	0.1479	0.1133	1.0313	-1.0547	0.6262	1.3184	17.7700 
327.519	0.1230	0.0967	1.0400	-0.8405	0.7416	1.4941	17.7700 
327.539	0.0762	0.0337	1.0703	-0.6097	0.8844	1.6589	17.7700 
327.560	0.0371	-0.0132	1.1401	-0.3351	1.0327	1.8512	17.7600 
327.579	0.0439	0.0190	1.2754	0.0000	1.1536	2.1368	17.7800 
327.692	0.0557	0.0913	1.2695	0.4120	1.2360	2.5378	17.7700 
327.705	0.0273	0.1401	1.1235	0.8350	1.3239	2.9498	17.7800 
327.706	-0.0322	0.0747	1.0249	1.1810	1.4392	3.2794	17.7700 
327.706	-0.0986	-0.0391	1.0322	1.3458	1.5875	3.4607	17.7800 
327.706	-0.1445	-0.1401	1.1646	1.2909	1.7523	3.5266	17.7800 
327.706	-0.1484	-0.1309	1.2075	1.0767	1.9446	3.5651	17.7700 
327.727	-0.0928	-0.0986	1.1934	0.7745	2.1423	3.6365	17.7500 
327.738	-0.0552	-0.0825	1.1460	0.4724	2.3016	3.7299	17.7700 
327.853	-0.0386	-0.0376	1.0469	0.2307	2.4225	3.8177	17.7600 
327.864	-0.0156	-0.0049	0.9678	0.0549	2.4774	3.8837	17.7400 
327.865	-0.0190	0.0044	0.8799	-0.0494	2.4554	3.8947	17.7700 
327.865	-0.0415	-0.0049	0.8726	-0.1263	2.3785	3.8177	17.7400 
327.865	-0.0762	-0.0142	0.8901	-0.1703	2.2687	3.6969	17.7500 
327.865	-0.0776	-0.0156	0.8989	-0.2032	2.1643	3.5651	17.7700 
327.887	-0.0430	-0.0239	0.9092	-0.2637	2.0654	3.4607	17.7700 
327.896	-0.0269	-0.0093	0.9121	-0.3186	1.9775	3.3838	17.7800 
327.916	-0.0083	0.0176	0.9209	-0.3571	1.9116	3.3069	17.7500 
327.936	-0.0063	0.0156	0.9561	-0.4120	1.8567	3.2080	17.7600 
327.956	-0.0107	0.0200	1.0068	-0.4724	1.8182	3.0652	17.7600 
328.059	-0.0273	0.0420	1.0161	-0.5328	1.8457	2.8455	17.7500 
328.072	-0.0322	0.0615	0.9878	-0.6097	1.9391	2.5763	17.7600 
328.073	-0.0400	0.0640	0.9683	-0.6812	2.0105	2.3181	17.7600 
328.073	-0.0371	0.0811	0.9600	-0.7141	1.9995	2.0819	17.7600 
328.073	-0.0200	0.0874	0.9771	-0.7251	1.9226	1.8787	17.7500 
328.079	-0.0142	0.1006	1.0239	-0.7416	1.8073	1.6754	17.7500 
328.095	-0.0181	0.1011	1.0469	-0.7526	1.6974	1.4557	17.7600 
328.118	-0.0259	0.1299	1.0396	-0.7471	1.5875	1.1920	17.7400 
328.139	-0.0200	0.1436	1.0337	-0.7196	1.4667	0.8789	17.7600 
328.161	-0.0044	0.1416	1.0059	-0.6812	1.3184	0.5273	17.7600 
328.262	-0.0054	0.1313	0.9912	-0.6207	1.1646	0.1813	17.7500 
328.274	-0.0156	0.1157	0.9956	-0.5438	0.9888	-0.1208	17.7500 
328.274	-0.0117	0.1074	1.0469	-0.4834	0.7910	-0.3845	17.7400 
328.274	0.0547	0.0493	1.1924	-0.4614	0.5603	-0.6317	17.7500 
328.274	0.1108	0.0151	1.3125	-0.4834	0.2856	-0.8569	17.7300 
328.280	0.1299	-0.0176	1.3545	-0.4504	-0.0055	-1.0327	17.7400 
328.296	0.1265	-0.0269	1.3135	-0.3845	-0.2362	-1.1371	17.7300 
328.320	0.1118	-0.0337	1.1299	-0.2747	-0.3845	-1.1151	17.7200 
328.339	0.1099	-0.0400	1.0430	-0.1428	-0.4614	-1.0217	17.7300 
328.362	0.1709	-0.0898	0.9956	-0.0714	-0.5328	-0.8679	17.7500 
328.471	0.1963	-0.1216	1.0132	-0.0549	-0.6097	-0.7855	17.7200 
328.484	0.1904	-0.1563	1.0747	-0.1099	-0.6866	-0.8954	17.7500 
328.485	0.1499	-0.1904	1.1421	-0.2307	-0.7526	-1.1316	17.7200 
328.485	0.1079	-0.1567	1.1440	-0.3571	-0.7965	-1.4063	17.7500 
328.485	0.1104	-0.1040	1.0913	-0.4669	-0.7965	-1.6205	17.7400 
328.485	0.1313	-0.0371	0.9780	-0.5713	-0.7306	-1.7413	17.7500 
328.504	0.1455	-0.0190	0.8916	-0.6317	-0.6482	-1.8182	17.7400 
328.513	0.1343	-0.0581	0.8574	-0.6866	-0.5823	-1.9006	17.7500 
328.533	0.1133	-0.0708	0.8765	-0.7306	-0.5493	-2.0105	17.7500 
328.552	0.1025	-0.0840	0.9072	-0.7855	-0.5548	-2.1643	17.7500 
328.572	0.1069	-0.1016	0.9297	-0.8569	-0.5713	-2.2797	17.7300 
328.676	0.1128	-0.0913	0.9351	-0.9119	-0.5878	-2.2961	17.7300 
328.688	0.1357	-0.0537	0.9526	-0.9613	-0.5823	-2.2247	17.7300 
328.688	0.1499	-0.0308	0.9697	-0.9833	-0.5658	-2.0984	17.7400 
328.688	0.1479	-0.0005	0.9507	-0.9888	-0.5328	-1.9501	17.7400 
328.688	0.1216	0.0122	0.9473	-0.9833	-0.4669	-1.8292	17.7500 
328.696	0.1089	0.0166	0.9727	-1.0052	-0.3680	-1.7523	17.7400 
328.712	0.1162	0.0078	0.9951	-1.0822	-0.2637	-1.6699	17.7500 
328.735	0.1313	0.0020	1.0376	-1.1755	-0.1593	-1.5875	17.7500 
328.757	0.1309	0.0000	1.0527	-1.2305	-0.0879	-1.4777	17.7300 
328.778	0.1226	0.0127	1.0557	-1.2305	-0.0494	-1.3513	17.7200 
328.888	0.1211	0.0303	1.0483	-1.1755	-0.0439	-1.1920	17.7300 
328.900	0.1299	0.0645	1.0405	-1.0657	-0.0659	-0.9778	17.7400 
328.900	0.1387	0.0913	1.0303	-0.9119	-0.0989	-0.7196	17.7400 
328.901	0.1338	0.1084	1.0220	-0.7361	-0.1208	-0.4504	17.7400 
328.901	0.1401	0.1133	1.0244	-0.5658	-0.1428	-0.1758	17.7200 
328.901	0.1519	0.1230	1.0269	-0.3900	-0.1813	0.0989	17.7400 
328.910	0.1543	0.1182	1.0186	-0.2142	-0.2197	0.3955	17.7300 
328.930	0.1436	0.1011	1.0015	-0.0165	-0.2362	0.7196	17.7200 
328.950	0.1338	0.0664	0.9849	0.1923	-0.2362	1.0822	17.7300 
328.970	0.0923	-0.0259	1.0723	0.4175	-0.2197	1.4886	17.7500 
328.990	0.0610	-0.0459	1.2065	0.6702	-0.2032	1.9666	17.7300 
329.099	0.0806	0.0566	1.2656	1.0602	-0.2362	2.5873	17.7300 
329.113	0.0918	0.1216	1.3188	1.4337	-0.2692	3.2300	17.7500 
329.114	0.0811	0.1938	1.2207	1.7688	-0.2856	3.7958	17.7500 
329.114	0.0352	0.1250	1.1221	1.9666	-0.2142	4.1748	17.7500 
329.115	-0.0610	-0.0342	1.0391	2.0215	-0.0769	4.4055	17.7500 
329.121	-0.1206	-0.1011	1.0317	2.0105	0.0604	4.5703	17.7500 
329.134	-0.1001	-0.0913	1.0386	1.8677	0.1813	4.7516	17.7200 
329.158	-0.0449	-0.0547	1.0176	1.6260	0.2527	5.0262	17.7500 
329.170	0.0337	-0.0254	1.0132	1.3348	0.2966	5.3668	17.7500 
329.189	0.0430	-0.0112	1.0029	1.0492	0.3625	5.6909	17.7600 
329.311	0.0254	-0.0049	0.9619	0.7965	0.4340	5.9271	17.7600 
329.319	0.0186	-0.0176	0.9458	0.5713	0.4999	6.0645	17.7400 
329.319	0.0015	-0.0161	0.9766	0.3790	0.5658	6.1084	17.7500 
329.319	0.0000	0.0044	0.9951	0.2307	0.6262	6.0864	17.7500 
329.319	0.0049	0.0254	1.0005	0.1208	0.6976	6.0095	17.7600 
329.319	0.0122	0.0156	1.0010	0.0220	0.7910	5.9052	17.7400 
329.327	0.0068	0.0049	0.9810	-0.0659	0.8844	5.7733	17.7500 
329.348	-0.0156	0.0181	0.9634	-0.1373	0.9888	5.6360	17.7600 
329.469	-0.0239	0.0449	0.9585	-0.1978	1.0767	5.5042	17.7500 
329.477	-0.0044	0.0527	0.9639	-0.2802	1.1426	5.3778	17.7500 
329.477	0.0176	0.0557	0.9790	-0.3735	1.1700	5.2515	17.7600 
329.477	0.0137	0.0566	0.9771	-0.4559	1.1920	5.0977	17.7500 
329.477	0.0010	0.0679	0.9751	-0.5164	1.2360	4.9329	17.7600 
329.477	-0.0068	0.0815	0.9761	-0.5768	1.2799	4.7626	17.7600 
329.487	-0.0044	0.0840	0.9702	-0.6262	1.3129	4.5978	17.7700 
329.507	0.0068	0.0825	0.9810	-0.6592	1.3239	4.4495	17.7600 
329.527	0.0015	0.0884	0.9922	-0.6702	1.3348	4.3066	17.7600 
329.548	-0.0088	0.1060	0.9980	-0.6812	1.3458	4.1638	17.7600 
329.570	-0.0127	0.1118	1.0098	-0.7031	1.3458	4.0375	17.7800 
329.678	-0.0054	0.0947	1.0337	-0.7910	1.3513	3.9221	17.7600 
329.690	-0.0044	0.1035	1.0620	-0.9009	1.3513	3.8397	17.7600 
329.690	-0.0078	0.1372	1.0859	-0.9888	1.3293	3.8123	17.7700 
329.691	0.0000	0.1499	1.0869	-1.0767	1.2909	3.8342	17.7500 
329.691	0.0215	0.1509	1.0771	-1.1700	1.2250	3.8672	17.7500 
329.697	0.0190	0.1484	1.0586	-1.2524	1.1481	3.8672	17.7500 
329.711	-0.0068	0.1553	1.0059	-1.3074	1.0712	3.8452	17.7500 
329.736	-0.0137	0.1548	0.9995	-1.3568	0.9943	3.7848	17.7600 
329.756	0.0376	0.0942	1.1050	-1.4502	0.8789	3.6584	17.7600 
329.767	0.0869	0.0728	1.1743	-1.5326	0.6647	3.4662	17.7500 
329.785	0.1147	0.0054	1.1895	-1.5656	0.4065	3.1696	17.7300 
329.889	0.1421	-0.0933	1.2085	-1.5985	0.1538	2.8400	17.7600 
329.902	0.1724	-0.2173	1.1836	-1.5216	-0.1428	2.6587	17.7600 
329.902	0.2329	-0.2451	1.1963	-1.4063	-0.4559	2.6202	17.7400 
329.902	0.2427	-0.1919	1.1675	-1.3403	-0.7196	2.6532	17.7600 
329.902	0.2026	-0.1885	1.1665	-1.3788	-0.8295	2.6147	17.7800 
329.908	0.1494	-0.1826	1.1597	-1.4667	-0.8020	2.5214	17.7600 
329.925	0.1050	-0.1396	1.1133	-1.5161	-0.7086	2.4060	17.7500 
329.950	0.0640	-0.0688	0.9478	-1.5491	-0.5493	2.3181	17.7500 
329.969	0.0308	-0.0503	0.8701	-1.5930	-0.3241	2.2687	17.7600 
329.991	0.0532	-0.0747	0.8462	-1.6754	-0.1044	2.2687	17.7600 
330.103	0.0786	-0.0854	0.8564	-1.7194	0.0385	2.3181	17.7500 
330.115	0.1006	-0.0752	0.8711	-1.7139	0.1099	2.3785	17.7400 
330.115	0.0962	-0.0664	0.9209	-1.6699	0.1648	2.4060	17.7500 
330.115	0.1157	-0.0522	0.9868	-1.6205	0.2087	2.4170	17.7300 
330.116	0.1240	-0.0337	0.9985	-1.5601	0.2362	2.4335	17.7400 
330.116	0.1196	-0.0234	1.0029	-1.5051	0.2637	2.4719	17.7600 
330.124	0.1216	-0.0132	0.9961	-1.4722	0.2856	2.5818	17.7600 
330.143	0.1289	0.0146	0.9839	-1.4502	0.3131	2.7795	17.7600 
330.162	0.1245	0.0215	0.9961	-1.4557	0.3680	3.0212	17.7500 
330.184	0.1226	0.0220	1.0229	-1.4996	0.4559	3.2520	17.7500 
330.204	0.1235	0.0176	1.0210	-1.5436	0.5438	3.4772	17.7400 
330.317	0.1060	-0.0073	1.0142	-1.5710	0.6427	3.6694	17.7400 
330.328	0.0986	-0.0098	1.0132	-1.5710	0.7416	3.8617	17.7400 
330.328	0.1006	-0.0024	1.0044	-1.5051	0.8405	4.1199	17.7500 
330.329	0.1118	0.0078	1.0278	-1.4063	0.9393	4.4275	17.7600 
330.329	0.1318	0.0493	1.0479	-1.2689	0.9943	4.7955	17.7600 
330.329	0.1431	0.0854	1.0459	-1.0822	1.0217	5.1910	17.7400 
330.353	0.1582	0.1313	1.0269	-0.8569	1.0272	5.5811	17.7500 
330.361	0.1606	0.1372	1.0127	-0.6152	1.0327	5.9381	17.7600 
330.384	0.1465	0.1060	1.0229	-0.3845	1.0657	6.2512	17.7700 
330.403	0.1030	0.0474	1.0972	-0.1813	1.1151	6.4984	17.7800 
330.422	0.0854	-0.0063	1.2031	0.0110	1.1426	6.7401	17.7600 
330.535	0.0845	0.0024	1.3716	0.2802	1.1426	7.0422	17.7700 
330.547	0.0708	0.0649	1.3940	0.6647	1.1206	7.3938	17.7600 
330.547	0.0439	0.1953	1.2798	1.0931	1.1700	7.7014	17.7600 
330.547	0.0293	0.1567	1.0781	1.3953	1.3513	7.8333	17.7600 
330.547	-0.0537	-0.0459	0.8804	1.5491	1.5765	7.8552	17.7800 
330.547	-0.1353	-0.1606	0.9263	1.6315	1.7688	7.8607	17.7700 
330.570	-0.1538	-0.1396	1.0127	1.6425	1.8732	7.9047	17.7600 
330.590	-0.1133	-0.0825	1.0249	1.5820	1.9061	8.0695	17.7600 
330.689	-0.0728	-0.0557	1.0874	1.4337	1.9446	8.3167	17.7700 
330.705	-0.0356	-0.0200	1.1011	1.2250	1.9830	8.5529	17.7800 
330.705	0.0127	0.0430	0.9980	1.0657	1.9885	8.7341	17.7800 
330.705	0.0132	0.0532	0.9390	0.9338	1.9611	8.8165	17.7700 
330.705	-0.0156	0.0332	0.9072	0.8240	1.9061	8.7451	17.7600 
330.722	-0.0283	0.0098	0.9077	0.7086	1.8402	8.6023	17.7800 
330.735	-0.0244	0.0088	0.9326	0.5768	1.7908	8.4265	17.7500 
330.742	-0.0137	0.0166	0.9438	0.4395	1.7413	8.2397	17.7700 
330.759	0.0181	0.0254	0.9629	0.2747	1.6974	8.0310	17.7800 
330.782	0.0210	0.0186	0.9639	0.0824	1.6699	7.7673	17.7700 
330.890	-0.0146	0.0054	0.9438	-0.0769	1.6754	7.4268	17.7600 
330.904	-0.0381	0.0059	0.9565	-0.2032	1.6699	7.0697	17.7600 
330.904	-0.0366	0.0093	0.9976	-0.3241	1.6205	6.7456	17.7700 
330.904	-0.0278	0.0195	1.0195	-0.4395	1.5546	6.4655	17.7700 
330.904	-0.0088	0.0483	1.0176	-0.5383	1.4832	6.2347	17.7600 
330.910	0.0054	0.0786	0.9985	-0.6097	1.4172	6.0425	17.7500 
330.925	0.0288	0.1143	0.9741	-0.6592	1.3293	5.8557	17.7800 
330.946	0.0474	0.1147	0.9463	-0.7196	1.2085	5.6415	17.7700 
330.970	0.0317	0.0908	0.9746	-0.7690	1.1151	5.3943	17.7500 
330.977	0.0156	0.0728	1.0205	-0.8075	1.0382	5.1306	17.7600 
330.999	0.0044	0.0967	1.0791	-0.8185	0.9723	4.9054	17.7600 
331.104	0.0132	0.1274	1.1030	-0.8240	0.9283	4.7186	17.7500 
331.117	0.0313	0.1587	1.1104	-0.8569	0.9009	4.5264	17.7500 
331.117	0.0420	0.1836	1.0835	-0.8679	0.8514	4.3286	17.7500 
331.117	0.0352	0.1812	1.0249	-0.8624	0.7745	4.1254	17.7600 
331.117	0.0215	0.1694	1.0083	-0.8405	0.6757	3.9331	17.7700 
331.124	0.0215	0.1509	1.0205	-0.8295	0.5438	3.7518	17.7600 
331.138	0.0371	0.1309	1.0728	-0.8405	0.3790	3.5431	17.7500 
331.161	0.0806	0.0449	1.2334	-0.9448	0.2252	3.2410	17.7600 
331.184	0.1045	0.0269	1.2505	-1.0327	0.0439	2.9059	17.7400 
331.204	0.0532	-0.0088	1.2217	-1.0327	-0.0879	2.5653	17.7600 
331.318	0.0830	-0.0396	1.1953	-1.0272	-0.1978	2.2357	17.7500 
331.331	0.1436	-0.1245	1.1460	-0.9613	-0.3900	2.0544	17.7400 
331.333	0.1914	-0.1870	1.1372	-0.9338	-0.6317	1.9775	17.7400 
331.333	0.2046	-0.2168	1.1440	-0.9778	-0.8569	1.9666	17.7500 
331.333	0.1841	-0.2227	1.1421	-1.1261	-0.9778	1.8402	17.7400 
331.333	0.1460	-0.2397	1.1304	-1.3184	-1.0382	1.6699	17.7400 
331.340	0.0923	-0.1860	1.0991	-1.4832	-1.0437	1.4667	17.7400 
331.356	0.0981	-0.1250	1.0005	-1.6095	-1.0217	1.3348	17.7400 
331.378	0.0972	-0.0977	0.8799	-1.6919	-0.9723	1.2854	17.7500 
331.400	0.0908	-0.0908	0.8501	-1.7139	-0.9229	1.2964	17.7300 
331.421	0.0874	-0.0869	0.8418	-1.7029	-0.8624	1.3184	17.7500 
331.536	0.0981	-0.0742	0.8506	-1.6699	-0.7910	1.3348	17.7400 
331.549	0.1006	-0.0586	0.8877	-1.6095	-0.7196	1.3623	17.7600 
331.549	0.1177	-0.0537	0.9351	-1.5875	-0.6317	1.3843	17.7700 
331.549	0.1387	-0.0518	0.9858	-1.6425	-0.5438	1.4172	17.7500 
331.549	0.1392	-0.0576	1.0093	-1.7413	-0.4779	1.4612	17.7400 
331.549	0.1309	-0.0449	1.0244	-1.8347	-0.4669	1.5436	17.7500 
331.556	0.1260	0.0015	0.9941	-1.8896	-0.4834	1.6644	17.7500 
331.574	0.1123	0.0259	0.9609	-1.9556	-0.4724	1.8127	17.7400 
331.597	0.1094	0.0151	0.9922	-2.0764	-0.4175	1.9446	17.7300 
331.617	0.1436	-0.0010	0.9985	-2.1973	-0.3845	2.1039	17.7400 
331.638	0.1484	-0.0215	0.9946	-2.3016	-0.3900	2.2577	17.7300 
331.745	0.1372	-0.0537	1.0220	-2.3566	-0.4285	2.4005	17.7300 
331.765	0.1323	-0.0269	1.0229	-2.3291	-0.4724	2.5653	17.7300 
331.765	0.1533	0.0435	0.9868	-2.1863	-0.4834	2.8015	17.7400 
331.765	0.1611	0.0674	0.9902	-2.0105	-0.4559	3.0597	17.7300 
331.765	0.1802	0.0737	1.0435	-1.8732	-0.3900	3.2959	17.7200 
331.783	0.1841	0.0840	1.0605	-1.7358	-0.3241	3.4937	17.7300 
331.789	0.1611	0.0918	1.0776	-1.5985	-0.2472	3.6584	17.7400 
331.804	0.1475	0.0957	1.0850	-1.4447	-0.1538	3.8123	17.7600 
331.901	0.1445	0.1118	1.0757	-1.2634	-0.0439	3.9990	17.7500 
331.916	0.1465	0.1191	1.0630	-1.0492	0.0714	4.2352	17.7400 
331.916	0.1455	0.1240	1.0537	-0.8185	0.2032	4.4934	17.7300 
331.916	0.1362	0.0835	1.0840	-0.5768	0.3406	4.7406	17.7500 
331.916	0.0967	0.0186	1.2603	-0.3516	0.4724	4.9713	17.7500 
331.923	0.0938	0.0596	1.3105	-0.0714	0.5658	5.2185	17.7400 
331.937	0.0488	0.0776	1.2451	0.2692	0.6537	5.5042	17.7500 
331.959	0.0000	0.0820	1.1528	0.6592	0.7635	5.8063	17.7400 
331.978	-0.0571	0.0122	0.9341	1.0547	0.8954	6.0974	17.7600 
332.001	-0.1064	-0.0679	0.9326	1.3074	1.0437	6.3446	17.7500 
332.110	-0.1392	-0.1270	1.0532	1.3348	1.1646	6.5533	17.7500 
332.122	-0.1050	-0.1216	1.1367	1.1975	1.2634	6.7621	17.7500 
332.122	-0.0601	-0.0640	1.1514	0.9229	1.3843	6.9598	17.7400 
332.122	-0.0308	-0.0542	1.1240	0.5823	1.5216	7.1301	17.7600 
332.123	0.0063	-0.0215	1.0488	0.2692	1.6370	7.2620	17.7400 
332.123	0.0366	0.0103	0.9688	0.0110	1.6974	7.3773	17.7500 
332.132	0.0317	0.0054	0.9053	-0.1703	1.6809	7.4103	17.7500 
332.150	-0.0098	-0.0186	0.9146	-0.3021	1.6370	7.3608	17.7400 
332.171	-0.0298	-0.0225	0.9326	-0.3735	1.5710	7.2455	17.7500 
332.191	-0.0381	-0.0103	0.9463	-0.4175	1.5161	7.1301	17.7500 
332.212	-0.0239	0.0010	0.9497	-0.4669	1.4996	7.0258	17.7700 
332.315	0.0195	0.0083	0.9541	-0.5603	1.4996	6.9214	17.7500 
332.327	0.0259	0.0190	0.9468	-0.6592	1.5271	6.7950	17.7700 
332.327	0.0010	0.0200	0.9375	-0.7141	1.5765	6.6357	17.7300 
332.327	-0.0229	0.0073	0.9697	-0.7526	1.6425	6.4325	17.7500 
332.327	-0.0352	0.0229	1.0107	-0.7855	1.7358	6.1853	17.7600 
332.333	-0.0308	0.0566	1.0239	-0.8295	1.8457	5.9381	17.7300 
332.353	-0.0273	0.0850	0.9800	-0.8679	1.9611	5.7184	17.7600 
332.374	-0.0337	0.0850	0.9590	-0.8789	2.0764	5.5042	17.7500 
332.395	-0.0488	0.0713	0.9521	-0.8624	2.1478	5.2789	17.7600 
332.419	-0.0542	0.0874	0.9390	-0.8020	2.1753	5.0592	17.7500 
332.531	-0.0488	0.0811	0.9399	-0.7416	2.1588	4.8560	17.7600 
332.545	-0.0415	0.0708	0.9702	-0.6976	2.0984	4.6912	17.7500 
332.545	-0.0400	0.0938	1.0254	-0.6317	1.9830	4.5703	17.7600 
332.545	-0.0288	0.1245	1.0576	-0.5603	1.8347	4.4824	17.7600 
332.545	-0.0088	0.1646	1.1001	-0.4999	1.6479	4.4165	17.7600 
332.545	0.0015	0.1851	1.0986	-0.4340	1.4557	4.3341	17.7700 
332.551	0.0195	0.1763	1.0840	-0.3625	1.2579	4.2297	17.7800 
332.568	0.0249	0.1792	1.1025	-0.3076	1.0492	4.1034	17.7800 
332.589	0.0747	0.0942	1.2363	-0.3790	0.8569	3.9001	17.7500 
332.611	0.1104	0.0464	1.3320	-0.5164	0.6262	3.6530	17.7600 
332.633	0.1021	-0.0044	1.3276	-0.5823	0.3735	3.4387	17.7600 
332.746	0.1050	-0.0361	1.2773	-0.5933	0.1593	3.2794	17.7600 
332.760	0.0981	-0.0347	1.1216	-0.5054	0.0000	3.2465	17.7600 
332.760	0.1084	-0.0391	1.0186	-0.3955	-0.1208	3.3179	17.7700 
332.760	0.1421	-0.0835	0.9688	-0.3461	-0.2362	3.4552	17.7600 
332.760	0.1548	-0.1357	0.9585	-0.3845	-0.3516	3.5596	17.7700 
332.760	0.1216	-0.2266	1.0024	-0.5109	-0.4504	3.5706	17.7500 
332.769	0.0918	-0.2510	1.0635	-0.6812	-0.4889	3.4991	17.7600 
332.786	0.0708	-0.2354	1.1362	-0.8789	-0.4944	3.4387	17.7500 
332.807	0.0894	-0.1602	1.0967	-1.0382	-0.4669	3.4662	17.7600 
332.827	0.1274	-0.0654	1.0000	-1.1316	-0.4120	3.5596	17.7500 
332.850	0.1333	-0.0522	0.9644	-1.1920	-0.3461	3.6530	17.7600 
332.964	0.1289	-0.0601	0.9365	-1.2030	-0.2802	3.7408	17.7600 
332.977	0.1118	-0.0503	0.9077	-1.1591	-0.2252	3.7848	17.7700 
332.977	0.0796	-0.0688	0.9019	-1.0822	-0.1813	3.8232	17.7700 
332.977	0.0718	-0.0649	0.9150	-1.0162	-0.1318	3.8672	17.7600 
332.977	0.0898	-0.0562	0.9331	-0.9613	-0.1044	3.9606	17.7700 
332.977	0.0981	-0.0444	0.9614	-0.9283	-0.0824	4.0869	17.7600 
332.985	0.1162	-0.0132	0.9985	-0.8954	-0.0714	4.2352	17.7400 
333.005	0.1270	0.0083	1.0171	-0.8734	-0.0659	4.3835	17.7600 
333.025	0.1318	0.0308	1.0005	-0.8350	-0.0769	4.5483	17.7700 
333.046	0.1221	0.0396	0.9922	-0.7800	-0.0824	4.7241	17.7700 
333.066	0.1240	0.0439	0.9829	-0.7251	-0.0934	4.9274	17.7800 
333.169	0.1431	0.0283	0.9902	-0.6976	-0.1044	5.1801	17.7600 
333.182	0.1445	0.0244	0.9956	-0.6812	-0.1044	5.4437	17.7600 
333.182	0.1362	0.0400	1.0112	-0.6812	-0.0439	5.6909	17.7500 
333.182	0.1362	0.0762	1.0396	-0.6647	0.0494	5.9106	17.7400 
333.182	0.1577	0.1025	1.0674	-0.6317	0.1373	6.1084	17.7500 
333.188	0.1528	0.1055	1.0698	-0.5878	0.2197	6.2238	17.7500 
333.205	0.1440	0.0981	1.0562	-0.5273	0.3241	6.2622	17.7500 
333.227	0.1323	0.1021	1.0439	-0.4559	0.4340	6.2677	17.7600 
333.250	0.1128	0.1147	1.0293	-0.3571	0.5273	6.2842	17.7600 
333.273	0.1108	0.1172	1.0449	-0.2527	0.5933	6.3446	17.7700 
333.389	0.1313	0.1274	1.0547	-0.1263	0.6317	6.4655	17.7500 
333.401	0.1567	0.1431	1.0332	0.0000	0.6592	6.6302	17.7700 
333.401	0.1587	0.1406	0.9902	0.1318	0.6976	6.8115	17.7500 
333.401	0.1313	0.1030	1.0083	0.2472	0.7690	6.9928	17.7600 
333.401	0.0796	-0.0093	1.1392	0.2966	0.8734	7.1521	17.7800 
333.401	0.0620	-0.0103	1.2437	0.3571	0.9778	7.3279	17.7700 
333.408	0.0664	0.0713	1.2354	0.5273	1.0712	7.5641	17.7600 
333.425	0.0698	0.0884	1.1885	0.7361	1.1646	7.7783	17.7600 
333.550	0.0146	0.0767	1.0767	0.9888	1.2360	7.9047	17.7700 
333.557	-0.0488	0.0376	0.9658	1.2469	1.3293	7.9156	17.7500 
333.557	-0.1274	-0.1025	0.9565	1.3788	1.4557	7.8003	17.7700 
333.557	-0.1460	-0.1514	1.0278	1.3953	1.5326	7.6740	17.7600 
333.557	-0.1113	-0.1421	1.1431	1.3074	1.4996	7.6300	17.7700 
333.557	-0.0679	-0.1050	1.1606	1.1646	1.4117	7.7344	17.7600 
333.564	-0.0059	-0.0791	1.1538	0.9613	1.3458	7.9431	17.7700 
333.587	0.0327	-0.0425	1.1201	0.7581	1.3074	8.1683	17.7600 
333.608	0.0630	0.0073	1.0288	0.6152	1.2634	8.3441	17.7800 
333.630	0.0571	0.0293	0.9746	0.5438	1.1975	8.4210	17.7700 
333.652	0.0210	0.0342	0.9570	0.5164	1.1316	8.3716	17.7800 
333.755	0.0020	0.0259	0.9512	0.4999	1.0822	8.2343	17.7700 
333.767	-0.0073	0.0225	0.9258	0.4614	1.0602	8.0750	17.7600 
333.767	0.0044	0.0293	0.9102	0.4010	1.0657	7.9156	17.7800 
333.767	0.0107	0.0303	0.9043	0.2911	1.1041	7.7179	17.7600 
333.767	0.0078	0.0264	0.9180	0.1373	1.1591	7.4707	17.7700 
333.767	-0.0254	-0.0029	0.9512	-0.0385	1.2250	7.1631	17.7500 
333.790	-0.0361	-0.0132	0.9688	-0.2142	1.2799	6.8610	17.7500 
333.801	-0.0210	0.0176	0.9673	-0.3625	1.3184	6.6138	17.7600 
333.820	-0.0010	0.0454	0.9639	-0.4889	1.3513	6.4160	17.7500 
333.839	0.0054	0.0522	0.9932	-0.6097	1.3733	6.2347	17.7500 
333.859	0.0000	0.0542	0.9995	-0.7141	1.3733	6.0315	17.7700 
333.976	-0.0049	0.0796	0.9692	-0.7690	1.3568	5.8228	17.7700 
333.984	0.0024	0.0825	0.9541	-0.7910	1.3074	5.6195	17.7500 
333.984	0.0034	0.0776	0.9868	-0.8075	1.2305	5.4327	17.7800 
333.984	0.0044	0.0776	1.0156	-0.8075	1.1206	5.2515	17.7600 
333.984	0.0107	0.0840	1.0571	-0.7910	0.9723	5.1031	17.7700 
333.984	0.0234	0.1143	1.1040	-0.7471	0.8020	4.9933	17.7600 
333.999	0.0410	0.1558	1.1089	-0.6976	0.6317	4.8724	17.7700 
334.018	0.0723	0.1934	1.0908	-0.6537	0.4834	4.7296	17.7400 
334.038	0.0791	0.1963	1.0698	-0.6372	0.3625	4.5483	17.7500 
334.058	0.0679	0.1865	1.0386	-0.6317	0.2417	4.3451	17.7700 
334.078	0.0459	0.1592	1.0366	-0.6592	0.1099	4.1089	17.7500 
334.185	0.0376	0.0894	1.1040	-0.7086	-0.0275	3.8672	17.7800 
334.197	0.0654	0.0537	1.1992	-0.7526	-0.2252	3.6475	17.7600 
334.197	0.1035	0.0776	1.2148	-0.7141	-0.4614	3.4662	17.7700 
334.198	0.1069	0.0488	1.2017	-0.6647	-0.6427	3.2684	17.7500 
334.198	0.1230	-0.0171	1.1450	-0.6207	-0.7855	3.0872	17.7600 
334.204	0.1250	-0.0259	1.0586	-0.4779	-0.9229	2.9938	17.7500 
334.219	0.1426	-0.0747	0.9971	-0.3461	-1.0327	2.9443	17.7600 
334.352	0.1733	-0.1333	0.9990	-0.2856	-1.1316	2.9114	17.7500 
334.359	0.1797	-0.1738	1.0620	-0.3021	-1.2030	2.8015	17.7500 
334.359	0.1611	-0.1870	1.1064	-0.3516	-1.2250	2.6202	17.7400 
334.359	0.0977	-0.1948	1.1665	-0.4340	-1.2085	2.3895	17.7400 
334.359	0.0786	-0.1563	1.1709	-0.5273	-1.1371	2.1753	17.7500 
334.359	0.0811	-0.0356	1.0757	-0.5823	-1.0107	2.0819	17.7500 
334.359	0.0957	0.0127	0.9722	-0.6262	-0.8679	2.0380	17.7400 
334.387	0.0957	-0.0020	0.8853	-0.6866	-0.6976	1.9830	17.7300 
334.397	0.0806	-0.0430	0.8545	-0.7251	-0.5548	1.9061	17.7400 
334.416	0.0386	-0.0781	0.8452	-0.7141	-0.4779	1.8018	17.7300 
334.436	0.0356	-0.0801	0.8682	-0.7031	-0.4340	1.7358	17.7400 
334.457	0.0762	-0.0625	0.9248	-0.7141	-0.4120	1.7578	17.7400 
334.565	0.1138	-0.0273	0.9614	-0.7416	-0.3955	1.8787	17.7300 
334.577	0.1489	0.0059	0.9980	-0.7965	-0.3900	2.0654	17.7400 
334.578	0.1528	0.0254	1.0132	-0.8679	-0.3790	2.2632	17.7400 
334.578	0.1523	0.0410	0.9937	-0.9283	-0.3735	2.4554	17.7300 
334.578	0.1445	0.0371	0.9580	-0.9723	-0.3625	2.6697	17.7200 
334.584	0.1128	-0.0107	0.9922	-1.0657	-0.3021	2.9059	17.7400 
334.604	0.1089	-0.0142	1.0063	-1.2085	-0.2087	3.1476	17.7300 
334.624	0.1221	0.0132	1.0122	-1.3458	-0.1099	3.3893	17.7200 
334.649	0.1372	0.0361	1.0132	-1.4282	-0.0220	3.6749	17.7200 
334.656	0.1714	0.0645	1.0435	-1.4337	0.0330	4.0100	17.7200 
334.674	0.1865	0.0703	1.0581	-1.3788	0.0604	4.3781	17.7100 
334.786	0.1563	0.1270	1.0762	-1.2524	0.1154	4.7076	17.7000 
334.799	0.1514	0.1396	1.0635	-1.0876	0.1758	5.0427	17.7100 
334.799	0.1436	0.1226	1.0713	-0.9558	0.2692	5.3998	17.7100 
334.799	0.1455	0.1206	1.0781	-0.8679	0.3900	5.7513	17.7100 
334.799	0.1631	0.1455	1.0640	-0.8075	0.5273	6.0699	17.7200 
334.805	0.1592	0.1313	1.0479	-0.7416	0.6372	6.3831	17.7000 
334.821	0.1060	0.0635	1.0884	-0.6592	0.7361	6.6742	17.7100 
334.843	0.0591	0.0210	1.1655	-0.5713	0.8350	6.9379	17.7200 
334.866	0.0288	0.0820	1.2480	-0.4175	0.9448	7.1796	17.6900 
334.873	0.0337	0.1113	1.2075	-0.2032	1.0327	7.4377	17.7100 
334.893	0.0225	0.0898	1.1440	-0.0165	1.0876	7.6575	17.7100 
334.994	-0.0249	0.0303	0.9785	0.1868	1.0602	7.8333	17.6900 
335.008	-0.0752	-0.0537	0.8965	0.3296	1.0162	7.8992	17.7000 
335.008	-0.1475	-0.2163	1.0684	0.2966	0.9833	7.8223	17.7200 
335.008	-0.1157	-0.1587	1.1484	0.2032	0.8899	7.7179	17.7100 
335.008	-0.0537	-0.0703	1.1323	0.0659	0.7855	7.7069	17.7000 
335.014	-0.0117	-0.0825	1.1001	-0.1538	0.6647	7.7838	17.7000 
335.033	0.0410	-0.0767	1.0684	-0.3900	0.5219	7.8552	17.7000 
335.055	0.0659	-0.0518	1.0303	-0.5768	0.3680	7.8992	17.7100 
335.076	0.0488	-0.0171	0.9648	-0.7086	0.2472	7.8772	17.7100 
335.100	0.0146	-0.0239	0.9570	-0.8075	0.1813	7.7838	17.6900 
335.221	0.0000	-0.0293	0.9731	-0.8844	0.1373	7.6794	17.7000 
335.239	0.0039	-0.0132	0.9712	-0.9448	0.1208	7.5806	17.7200 
335.239	0.0303	0.0273	0.9458	-0.9943	0.1483	7.4872	17.7100 
335.239	0.0508	0.0586	0.9150	-1.0272	0.1923	7.4048	17.7200 
335.239	0.0527	0.0537	0.9302	-1.0876	0.2252	7.3004	17.7000 
335.239	0.0498	0.0347	0.9546	-1.1700	0.2472	7.1686	17.7000 
335.258	0.0405	0.0269	0.9868	-1.2744	0.2692	7.0038	17.7200 
335.268	0.0308	0.0479	0.9995	-1.4008	0.3186	6.8060	17.7100 
335.387	0.0278	0.0518	1.0049	-1.5656	0.4340	6.5533	17.7000 
335.399	0.0283	0.0649	0.9663	-1.7029	0.5548	6.3007	17.7100 
335.399	0.0088	0.0264	0.9336	-1.7853	0.6207	6.0754	17.6900 
335.399	-0.0308	0.0024	0.9512	-1.8567	0.6921	5.7843	17.7000 
335.399	-0.0659	0.0146	0.9688	-1.8951	0.7581	5.4602	17.7200 
335.399	-0.0586	0.0337	1.0005	-1.8951	0.7635	5.2020	17.7100 
335.399	-0.0005	0.0630	1.0229	-1.8677	0.6757	5.0317	17.7100 
335.422	0.0264	0.0933	1.0371	-1.8237	0.5383	4.8779	17.6900 
335.433	0.0322	0.1162	1.0601	-1.7523	0.3845	4.7131	17.7100 
335.450	0.0176	0.1216	1.0771	-1.6699	0.2252	4.5374	17.6900 
335.470	0.0088	0.1157	1.0762	-1.5765	0.0769	4.3451	17.7000 
335.493	0.0151	0.1050	1.0483	-1.4722	-0.0769	4.1638	17.7000 
335.596	0.0200	0.0532	1.1001	-1.3898	-0.2362	3.9716	17.7000 
335.609	0.0513	0.0405	1.2080	-1.3074	-0.4340	3.7793	17.7100 
335.609	0.1016	0.1172	1.2651	-1.1920	-0.6757	3.5870	17.7000 
335.609	0.1494	0.1138	1.2549	-1.1151	-0.8899	3.3289	17.7000 
335.609	0.2031	0.0332	1.1362	-1.0217	-1.1591	3.1531	17.7000 
335.615	0.1875	-0.0786	1.0444	-0.8459	-1.5546	3.1860	17.7000 
335.629	0.1855	-0.2603	1.0581	-0.7526	-1.8787	3.3069	17.7000 
335.654	0.1807	-0.3228	1.0840	-0.7690	-2.1533	3.4277	17.7100 
335.675	0.1367	-0.2407	1.1782	-0.8844	-2.2412	3.2080	17.7000 
335.690	0.1201	-0.2407	1.1836	-1.0217	-2.2852	2.8949	17.7100 
335.817	0.0747	-0.1880	1.1426	-1.1536	-2.2522	2.6202	17.6900 
335.823	0.0859	-0.1167	1.0518	-1.2250	-2.1808	2.4280	17.6900 
335.823	0.1191	-0.0356	0.9185	-1.2415	-2.1149	2.4060	17.6900 
335.823	0.1357	-0.0356	0.8579	-1.2250	-2.0819	2.4939	17.6900 
335.823	0.1353	-0.0620	0.8291	-1.1920	-2.0764	2.6147	17.6900 
335.823	0.1167	-0.0942	0.8389	-1.1481	-2.0654	2.6807	17.7100 
335.830	0.1147	-0.1226	0.8535	-1.1316	-2.0435	2.7301	17.7100 
335.853	0.1177	-0.1011	0.9189	-1.0931	-1.9940	2.7740	17.6900 
335.875	0.1406	-0.0854	0.9600	-1.0547	-1.9446	2.8839	17.7100 
335.974	0.1714	-0.0161	0.9878	-0.9998	-1.8842	3.0487	17.7100 
335.989	0.1899	0.0195	1.0015	-0.9558	-1.8237	3.2520	17.7000 
335.989	0.1904	0.0229	1.0107	-0.9283	-1.7963	3.4937	17.6900 
335.989	0.1768	0.0347	1.0049	-0.9229	-1.7633	3.7134	17.7000 
335.989	0.1597	0.0469	0.9951	-0.9503	-1.7084	3.9111	17.7100 
335.996	0.1538	0.0347	0.9956	-1.0217	-1.6150	4.1034	17.7100 
336.009	0.1494	0.0103	0.9990	-1.1261	-1.4886	4.3011	17.7100 
336.032	0.1494	0.0078	1.0107	-1.2195	-1.3513	4.5044	17.6900 
336.053	0.1455	0.0327	1.0205	-1.2579	-1.1975	4.6802	17.6900 
336.076	0.1563	0.0430	1.0225	-1.2469	-1.0712	4.8779	17.6800 
336.187	0.1597	0.0552	1.0225	-1.1865	-0.9778	5.1141	17.6900 
336.198	0.1523	0.0654	1.0254	-1.0986	-0.8789	5.3723	17.6900 
336.199	0.1558	0.1123	1.0151	-0.9833	-0.7745	5.6635	17.6800 
336.199	0.1553	0.1211	1.0317	-0.8569	-0.6537	5.9766	17.6800 
336.199	0.1611	0.1338	1.0728	-0.7361	-0.5219	6.2732	17.6700 
336.199	0.1694	0.1396	1.0796	-0.6042	-0.4120	6.5424	17.6900 
336.205	0.1655	0.1406	1.0850	-0.4504	-0.3296	6.7950	17.6700 
336.226	0.1460	0.1333	1.0767	-0.2747	-0.2637	7.0532	17.6700 
336.245	0.1177	0.1235	1.0532	-0.0659	-0.1923	7.3334	17.7000 
336.266	0.1104	0.0889	1.0288	0.1483	-0.0934	7.6685	17.6900 
336.291	0.0986	0.0347	1.1489	0.3351	0.0439	8.0200	17.6700 
336.391	0.1074	0.1055	1.2207	0.5383	0.1703	8.3826	17.7000 
336.405	0.1021	0.1001	1.1426	0.8020	0.2472	8.7781	17.6600 
336.405	0.0444	0.0522	1.1445	1.0107	0.3680	9.1022	17.6800 
336.405	-0.0620	-0.0034	1.0303	1.2085	0.5054	9.3109	17.6800 
336.405	-0.1289	-0.0605	0.9688	1.3403	0.7031	9.3604	17.6700 
336.411	-0.1807	-0.1851	1.0391	1.3513	0.9064	9.3384	17.6900 
336.428	-0.1475	-0.1748	1.1357	1.2744	1.0162	9.3933	17.6800 
336.452	-0.0596	-0.0596	1.1519	1.1591	1.0107	9.5691	17.7000 
336.472	-0.0166	-0.0151	1.1348	0.9888	0.9943	9.7888	17.7000 
336.495	0.0298	0.0181	1.0869	0.7745	0.9833	10.0195	17.6700 
336.604	0.0459	0.0356	1.0151	0.5768	0.9448	10.2283	17.6900 
336.618	0.0581	0.0391	0.9097	0.3955	0.8514	10.3711	17.6800 
336.618	0.0420	0.0132	0.8774	0.2307	0.7361	10.4480	17.6800 
336.618	0.0020	-0.0244	0.9019	0.0769	0.6427	10.4425	17.6900 
336.618	0.0015	-0.0039	0.9150	-0.0220	0.5713	10.3931	17.6600 
336.619	0.0322	0.0396	0.9429	-0.1044	0.5054	10.3436	17.6800 
336.639	0.0566	0.0576	0.9595	-0.1758	0.4559	10.2777	17.6800 
336.645	0.0640	0.0898	0.9702	-0.2197	0.4285	10.1624	17.6700 
336.662	0.0493	0.1025	0.9761	-0.2692	0.4285	9.9646	17.6700 
336.684	0.0391	0.0825	0.9751	-0.3900	0.4340	9.6954	17.6700 
336.704	0.0122	0.0200	0.9902	-0.5933	0.4504	9.3933	17.6900 
336.814	-0.0083	0.0137	0.9932	-0.7965	0.4834	9.0802	17.6800 
336.826	-0.0083	0.0273	0.9668	-0.9558	0.4669	8.8330	17.6600 
336.826	-0.0020	0.0454	0.9561	-1.0492	0.3900	8.6737	17.6800 
336.826	0.0083	0.0576	0.9780	-1.1096	0.2802	8.5529	17.6700 
336.826	0.0146	0.0732	1.0015	-1.1261	0.1538	8.4155	17.6600 
336.832	0.0313	0.0933	1.0137	-1.0931	0.0110	8.2562	17.6600 
336.849	0.0361	0.1089	1.0322	-1.0382	-0.1099	8.0530	17.6600 
336.869	0.0449	0.1050	1.0796	-0.9888	-0.2362	7.8168	17.6600 
336.892	0.0425	0.1099	1.1016	-0.9503	-0.3406	7.5586	17.6800 
336.902	0.0396	0.1191	1.1118	-0.9283	-0.4010	7.2894	17.6800 
337.023	0.0464	0.1226	1.1030	-0.9174	-0.4449	7.0477	17.6700 
337.036	0.0508	0.1245	1.0537	-0.8954	-0.5109	6.8390	17.6700 
337.036	0.0420	0.1074	1.0586	-0.8569	-0.5768	6.6302	17.6700 
337.036	0.0459	0.0532	1.1309	-0.7745	-0.6812	6.4270	17.6700 
337.036	0.0840	0.0610	1.1533	-0.6647	-0.8459	6.2512	17.6600 
337.036	0.1045	0.0083	1.1553	-0.5328	-1.0437	6.1029	17.6500 
337.042	0.1284	-0.0210	1.1343	-0.4010	-1.2195	5.9326	17.6500 
337.060	0.1553	-0.0171	0.9805	-0.1978	-1.3788	5.8337	17.6600 
337.081	0.1611	-0.1548	0.9521	-0.0604	-1.4941	5.8173	17.6600 
337.104	0.1582	-0.2671	1.1387	-0.0769	-1.5710	5.8118	17.6600 
337.125	0.1577	-0.2412	1.2363	-0.1593	-1.6370	5.7184	17.6400 
337.236	0.1221	-0.1914	1.3022	-0.3296	-1.6644	5.5316	17.6600 
337.252	0.0913	-0.1538	1.2671	-0.5109	-1.6479	5.3229	17.6500 
337.253	0.0845	-0.0396	1.0874	-0.6537	-1.5710	5.1581	17.6600 
337.253	0.0962	-0.0132	0.9619	-0.7855	-1.4667	5.0702	17.6700 
337.253	0.1294	-0.0918	0.8682	-0.9119	-1.4008	5.1031	17.6600 
337.253	0.1147	-0.1436	0.8940	-1.0107	-1.3623	5.1691	17.6600 
337.276	0.0635	-0.1328	0.9429	-1.0162	-1.3184	5.1855	17.6400 
337.299	0.0640	-0.0933	0.9448	-0.9283	-1.2854	5.1910	17.6500 
337.307	0.1196	-0.0254	0.9316	-0.8130	-1.2689	5.2570	17.6600 
337.322	0.1523	-0.0088	0.9175	-0.7306	-1.2689	5.3888	17.6700 
337.343	0.1582	-0.0059	0.9072	-0.7086	-1.2579	5.5371	17.6600 
337.449	0.1465	-0.0107	0.9194	-0.7581	-1.2305	5.6635	17.6400 
337.461	0.1089	-0.0151	0.9536	-0.8514	-1.1920	5.7623	17.6600 
337.461	0.1055	-0.0361	0.9727	-0.9558	-1.1426	5.8722	17.6400 
337.462	0.1328	-0.0220	0.9761	-1.0382	-1.0986	6.0370	17.6500 
337.462	0.1553	-0.0161	0.9844	-1.0986	-1.0712	6.2512	17.6400 
337.468	0.1670	0.0176	1.0049	-1.1371	-1.0437	6.4929	17.6600 
337.483	0.1616	0.0337	1.0244	-1.1426	-1.0107	6.7072	17.6700 
337.505	0.1484	0.0566	1.0288	-1.0986	-0.9613	6.9324	17.6400 
337.608	0.1396	0.0850	1.0068	-0.9998	-0.8844	7.1741	17.6500 
337.621	0.1406	0.1025	1.0078	-0.9009	-0.7471	7.4103	17.6600 
337.621	0.1489	0.0996	1.0327	-0.8624	-0.5713	7.6190	17.6600 
337.621	0.1348	0.0977	1.0542	-0.8514	-0.4010	7.7728	17.6600 
337.621	0.1245	0.1089	1.0889	-0.8295	-0.2307	7.8717	17.6400 
337.628	0.1260	0.1030	1.1035	-0.7965	-0.1154	7.9651	17.6500 
337.642	0.1411	0.1304	1.0767	-0.7196	-0.0549	8.0804	17.6400 
337.666	0.1538	0.1494	1.0508	-0.6097	-0.0330	8.2068	17.6500 
337.688	0.1606	0.1572	1.0161	-0.4779	-0.0330	8.3496	17.6500 
337.699	0.1553	0.1528	1.0000	-0.3351	-0.0439	8.5034	17.6500 
337.716	0.1436	0.1055	0.9688	-0.1703	-0.0769	8.6902	17.6400 
337.817	0.1265	0.0127	1.0200	-0.0439	-0.0934	8.9154	17.6300 
337.830	0.0864	-0.0146	1.1567	0.0934	-0.0714	9.1461	17.6400 
337.830	0.0835	0.0234	1.1685	0.3351	-0.0769	9.4537	17.6500 
337.830	0.0728	0.0376	1.1782	0.5988	-0.0604	9.7778	17.6500 
337.830	0.0449	0.0181	1.1538	0.8240	0.0000	10.0140	17.6300 
337.837	-0.0596	-0.0107	1.0645	1.0052	0.1318	10.0854	17.6300 
337.855	-0.1226	-0.0679	1.0703	1.0986	0.3516	10.0745	17.6300 
337.878	-0.1289	-0.1133	1.1875	0.9943	0.5768	10.1294	17.6300 
337.903	-0.0986	-0.0713	1.2212	0.7965	0.7745	10.2832	17.6300 
337.921	-0.0366	-0.0039	1.1685	0.5383	0.9558	10.4810	17.6400 
338.062	0.0005	0.0151	1.1045	0.2197	1.1481	10.6458	17.6300 
338.069	0.0454	0.0117	0.9927	-0.1428	1.3074	10.7281	17.6300 
338.069	0.0522	0.0024	0.9189	-0.4944	1.3953	10.7501	17.6400 
338.069	0.0298	-0.0361	0.8516	-0.8130	1.4063	10.6897	17.6300 
338.069	0.0156	-0.0488	0.8677	-1.0876	1.4063	10.5634	17.6300 
338.069	0.0210	-0.0283	0.9009	-1.2964	1.4063	10.3931	17.6500 
338.069	0.0186	-0.0063	0.9160	-1.4447	1.4227	10.1898	17.6300 
338.075	0.0020	0.0098	0.9536	-1.5436	1.4722	9.9536	17.6400 
338.097	0.0054	0.0259	0.9746	-1.6260	1.5381	9.6680	17.6300 
338.221	0.0005	0.0347	1.0005	-1.7358	1.6095	9.3274	17.6300 
338.226	-0.0195	0.0405	1.0068	-1.8457	1.6699	8.9594	17.6400 
338.226	-0.0391	0.0576	0.9673	-1.9171	1.6864	8.6078	17.6200 
338.226	-0.0361	0.0566	0.9365	-1.9666	1.6754	8.2892	17.6200 
338.226	-0.0166	0.0234	0.9434	-2.0325	1.6260	8.0310	17.6300 
338.226	-0.0146	0.0112	0.9648	-2.1039	1.5436	7.8333	17.6400 
338.232	-0.0347	0.0435	1.0020	-2.1149	1.4557	7.6575	17.6300 
338.256	-0.0205	0.0732	1.0078	-2.0709	1.3239	7.5092	17.6300 
338.275	0.0073	0.1025	1.0142	-1.9775	1.1481	7.3773	17.6400 
338.302	0.0161	0.1147	1.0127	-1.8512	0.9503	7.2235	17.6300 
338.324	0.0156	0.1006	1.0195	-1.7194	0.7416	7.0477	17.6400 
338.428	0.0049	0.0923	1.0557	-1.6150	0.5328	6.8555	17.6200 
338.443	0.0083	0.1025	1.1050	-1.5546	0.3406	6.6907	17.6200 
338.443	0.0127	0.1221	1.0977	-1.4996	0.1703	6.5479	17.6000 
338.443	0.0225	0.1006	1.0952	-1.4557	0.0275	6.3885	17.6200 
338.443	0.0479	0.0498	1.1611	-1.4502	-0.1154	6.2073	17.6100 
338.443	0.0962	0.0415	1.2080	-1.4117	-0.3461	6.0315	17.6100 
338.462	0.0806	0.0049	1.2407	-1.3074	-0.5933	5.8447	17.6100 
338.471	0.1030	-0.0186	1.2871	-1.2250	-0.7965	5.5756	17.6100 
338.491	0.1602	-0.0078	1.1733	-1.0767	-0.9833	5.3284	17.6200 
338.513	0.1694	-0.0122	1.0659	-0.9064	-1.1261	5.1306	17.6200 
338.532	0.1865	-0.1245	0.9590	-0.8130	-1.2909	5.0262	17.6000 
338.645	0.1860	-0.2534	0.9961	-0.9119	-1.4337	4.9713	17.6200 
338.657	0.1587	-0.2686	1.1240	-1.1151	-1.5271	4.7791	17.6300 
338.657	0.1089	-0.1987	1.1626	-1.3129	-1.5765	4.4659	17.6000 
338.658	0.0981	-0.1235	1.1226	-1.4941	-1.5710	4.2188	17.6100 
338.658	0.1201	-0.0815	1.0464	-1.6699	-1.5106	4.0759	17.6100 
338.658	0.1294	-0.0742	0.9111	-1.8018	-1.4392	4.0210	17.6000 
338.680	0.1279	-0.0977	0.8599	-1.9061	-1.3788	4.0320	17.6200 
338.702	0.1001	-0.0957	0.8628	-1.9830	-1.3074	4.0320	17.6100 
338.710	0.0962	-0.0830	0.8882	-2.0325	-1.2469	4.0045	17.6100 
338.730	0.1216	-0.0811	0.9219	-2.0599	-1.2250	4.0265	17.6100 
338.752	0.1455	-0.0688	0.9453	-2.0929	-1.2085	4.0869	17.6000 
338.852	0.1699	-0.0435	0.9692	-2.1478	-1.1536	4.1638	17.6200 
338.864	0.1675	-0.0356	0.9780	-2.2137	-1.0931	4.2737	17.6100 
338.865	0.1553	-0.0039	0.9917	-2.2632	-1.0327	4.4220	17.5900 
338.865	0.1538	0.0049	0.9878	-2.3181	-0.9723	4.5978	17.6100 
338.865	0.1445	0.0283	0.9775	-2.3840	-0.8899	4.7791	17.6000 
338.871	0.1436	0.0244	0.9673	-2.4829	-0.7800	4.9603	17.6000 
338.888	0.1440	0.0083	0.9834	-2.5983	-0.6592	5.1361	17.6000 
338.911	0.1455	-0.0054	1.0024	-2.7026	-0.5438	5.3064	17.6100 
338.935	0.1401	-0.0112	1.0190	-2.7795	-0.4395	5.4712	17.6000 
338.958	0.1260	0.0142	1.0278	-2.7850	-0.3296	5.6525	17.6100 
339.062	0.1372	0.0410	1.0439	-2.7411	-0.2142	5.8942	17.6000 
339.073	0.1519	0.0635	1.0571	-2.6807	-0.0879	6.1578	17.6000 
339.073	0.1733	0.0879	1.0488	-2.5928	0.0275	6.4325	17.6000 
339.073	0.1709	0.1006	1.0444	-2.4774	0.1373	6.7017	17.6200 
339.073	0.1523	0.0898	1.0264	-2.3511	0.2637	6.9489	17.6000 
339.073	0.1240	0.0498	1.0049	-2.2192	0.4230	7.2070	17.6000 
339.094	0.0659	-0.0317	1.0435	-2.0819	0.6207	7.5092	17.6300 
339.119	0.0244	-0.0708	1.1670	-1.9391	0.8459	7.8552	17.6000 
339.223	0.0396	0.0337	1.2617	-1.7084	1.0437	8.2562	17.6000 
339.237	0.0571	0.0479	1.2524	-1.4117	1.1975	8.7067	17.5900 
339.237	0.0151	0.0737	1.2085	-1.1316	1.3513	9.0637	17.5900 
339.237	-0.0479	0.0601	1.0806	-0.8130	1.4832	9.3274	17.5900 
339.237	-0.1338	-0.0825	1.0098	-0.6812	1.7084	9.3658	17.5900 
339.237	-0.1733	-0.1680	1.0464	-0.7251	1.9611	9.3109	17.5800 
339.255	-0.1743	-0.1509	1.1235	-0.8459	2.1368	9.3768	17.5900 
339.266	-0.1055	-0.0762	1.1265	-1.0217	2.2357	9.6130	17.6000 
339.286	0.0034	-0.0332	1.0781	-1.2689	2.2412	9.9756	17.5600 
339.306	0.0405	-0.0171	1.0425	-1.5656	2.2028	10.3326	17.5700 
339.426	0.0508	-0.0015	0.9971	-1.8457	2.1368	10.6293	17.6000 
339.433	0.0308	-0.0039	0.9175	-2.1149	2.0544	10.8105	17.5900 
339.433	0.0005	-0.0181	0.8906	-2.3621	1.9885	10.9094	17.5800 
339.433	-0.0132	-0.0273	0.9004	-2.5653	1.9281	10.9698	17.6000 
339.433	-0.0039	-0.0005	0.9214	-2.7081	1.8292	11.0468	17.5900 
339.433	0.0366	0.0288	0.9302	-2.8400	1.7084	11.0907	17.5900 
339.446	0.0493	0.0215	0.9365	-2.9993	1.6315	11.0742	17.5900 
339.464	0.0254	0.0161	0.9414	-3.1531	1.6370	10.9589	17.5800 
339.488	-0.0083	0.0005	0.9551	-3.3014	1.6589	10.7831	17.5900 
339.507	-0.0386	-0.0176	0.9868	-3.4552	1.6754	10.6018	17.5900 
339.529	-0.0293	-0.0024	0.9956	-3.5815	1.6589	10.4535	17.5700 
339.647	-0.0024	0.0391	0.9746	-3.6804	1.6260	10.3217	17.5700 
339.658	0.0190	0.0659	0.9614	-3.7518	1.5656	10.1788	17.5900 
339.658	0.0308	0.0566	0.9639	-3.8068	1.5051	10.0085	17.5800 
339.658	0.0190	0.0371	0.9805	-3.8507	1.4392	9.7888	17.5900 
339.658	-0.0088	0.0015	1.0249	-3.8617	1.3678	9.5142	17.5700 
339.658	-0.0142	-0.0151	1.0806	-3.8507	1.2799	9.2395	17.5800 
339.664	-0.0117	0.0151	1.1348	-3.7903	1.1755	9.0033	17.5800 
339.683	-0.0122	0.0537	1.1279	-3.6859	1.0986	8.8000	17.5700 
339.703	-0.0171	0.1030	1.0957	-3.5541	1.0876	8.6078	17.5700 
339.726	-0.0093	0.1055	1.0801	-3.4442	1.1041	8.3936	17.6000 
339.751	0.0503	0.0278	1.1938	-3.4497	1.0602	8.0914	17.6000 
339.856	0.1118	0.0137	1.2158	-3.4222	0.8789	7.7838	17.5800 
339.870	0.1050	-0.0811	1.2422	-3.3344	0.6427	7.4597	17.5900 
339.870	0.1133	-0.1313	1.2329	-3.1860	0.3900	7.1906	17.5800 
339.870	0.1348	-0.1172	1.1167	-2.8729	0.1099	7.1082	17.5800 
339.870	0.1606	-0.1196	1.0513	-2.5928	-0.1154	7.1466	17.5800 
339.876	0.1934	-0.1895	1.0391	-2.4225	-0.2966	7.2180	17.5700 
339.890	0.1753	-0.1875	1.0659	-2.3511	-0.4065	7.1301	17.5700 
339.920	0.1094	-0.1924	1.1211	-2.3346	-0.4230	6.8390	17.5900 
339.935	0.0679	-0.1831	1.1348	-2.3566	-0.3680	6.4545	17.5800 
339.942	0.0371	-0.1201	1.0649	-2.3730	-0.2582	6.0919	17.5800 
339.968	0.0503	-0.0845	0.9912	-2.3730	-0.1044	5.8008	17.5700 
340.079	0.0981	-0.0532	0.9014	-2.3676	0.0494	5.5920	17.5800 
340.092	0.1152	-0.0425	0.8628	-2.3236	0.1593	5.3888	17.5700 
340.092	0.0967	-0.0503	0.8560	-2.2412	0.2142	5.1251	17.5800 
340.092	0.0864	-0.0610	0.8955	-2.1588	0.2417	4.7845	17.5700 
340.092	0.0830	-0.0674	0.9238	-2.0654	0.2307	4.4604	17.5500 
340.093	0.0874	-0.0610	0.9341	-1.9775	0.2142	4.2133	17.5800 
340.101	0.1211	-0.0386	0.9355	-1.9226	0.2087	4.0704	17.5700 
340.121	0.1304	-0.0190	0.9551	-1.9061	0.2087	3.9935	17.5700 
340.238	0.1382	-0.0005	0.9937	-1.9281	0.2197	3.9661	17.5700 
340.244	0.1392	0.0098	1.0103	-1.9611	0.2472	3.9551	17.5800 
340.244	0.1426	0.0024	1.0210	-2.0325	0.3021	3.9551	17.5700 
340.244	0.1426	-0.0127	1.0254	-2.1204	0.3680	3.9935	17.5800 
340.244	0.1396	-0.0088	1.0269	-2.1753	0.4285	4.0924	17.5600 
340.244	0.1357	0.0049	1.0303	-2.1973	0.4944	4.2407	17.5700 
340.272	0.1353	0.0220	1.0444	-2.1973	0.5658	4.4055	17.5700 
340.280	0.1460	0.0498	1.0435	-2.1533	0.6372	4.6088	17.5700 
340.300	0.1533	0.0752	1.0366	-2.0599	0.7086	4.8450	17.5700 
340.320	0.1763	0.0957	1.0186	-1.9226	0.7690	5.1031	17.5800 
340.340	0.1582	0.0845	1.0220	-1.7633	0.8405	5.3503	17.5500 
340.461	0.1064	0.0430	1.0386	-1.5656	0.9229	5.5865	17.5500 
340.467	0.0508	-0.0313	1.1147	-1.3733	1.0217	5.8118	17.5500 
340.467	0.0078	-0.0239	1.2720	-1.1700	1.1316	6.0535	17.5800 
340.467	0.0269	0.0405	1.2725	-0.8679	1.2140	6.3940	17.5700 
340.467	0.0166	0.0898	1.2290	-0.5768	1.3293	6.7126	17.5700 
340.468	-0.0112	0.0850	1.1016	-0.2911	1.4612	6.9379	17.5500 
340.480	-0.1069	-0.0854	0.9624	-0.1428	1.6150	7.0093	17.5500 
340.499	-0.1904	-0.1816	0.9907	-0.0494	1.7413	7.0093	17.5600 
340.519	-0.2109	-0.1768	1.1206	-0.0055	1.7798	7.1466	17.5600 
340.541	-0.1338	-0.1143	1.1675	-0.0879	1.7743	7.4542	17.5600 
340.561	-0.0132	-0.0430	1.1470	-0.3021	1.7523	7.8717	17.5800 
340.664	0.0410	-0.0205	1.1162	-0.5548	1.6809	8.2727	17.5600 
340.676	0.0464	-0.0020	1.0293	-0.7416	1.5546	8.5968	17.5400 
340.676	0.0317	0.0083	0.9609	-0.8679	1.4008	8.8385	17.5400 
340.676	0.0137	0.0151	0.9014	-0.9393	1.2524	8.9978	17.5400 
340.676	0.0049	0.0205	0.8896	-0.9723	1.1096	9.1132	17.5500 
340.692	0.0132	0.0093	0.8931	-0.9668	0.9558	9.2120	17.5400 
340.708	0.0137	0.0093	0.8979	-0.9338	0.8075	9.2834	17.5600 
340.718	0.0195	0.0239	0.8887	-0.8899	0.6921	9.3109	17.5400 
340.737	0.0234	0.0386	0.9092	-0.8789	0.6482	9.2670	17.5300 
340.759	0.0093	0.0532	0.9551	-0.8734	0.6317	9.1791	17.5400 
340.881	0.0117	0.0586	0.9722	-0.8789	0.6097	9.0857	17.5400 
340.895	0.0103	0.0610	0.9795	-0.8844	0.5933	8.9978	17.5500 
340.895	0.0137	0.0601	0.9780	-0.9009	0.5878	8.9154	17.5500 
340.895	0.0093	0.0747	0.9893	-0.9229	0.5933	8.8000	17.5300 
340.895	0.0142	0.0913	0.9814	-0.9393	0.5988	8.6407	17.5400 
340.895	0.0210	0.1147	0.9731	-0.9338	0.5933	8.4375	17.5500 
340.901	0.0205	0.1079	0.9873	-0.9064	0.5603	8.1958	17.5400 
340.919	0.0146	0.1050	1.0352	-0.8185	0.4779	7.9211	17.5300 
340.937	0.0005	0.1133	1.0581	-0.6702	0.3735	7.6410	17.5400 
340.961	-0.0024	0.1318	1.0859	-0.5054	0.2856	7.3553	17.5300 
340.985	0.0059	0.1479	1.0947	-0.3680	0.2307	7.0862	17.5500 
341.097	0.0166	0.1758	1.0605	-0.2417	0.1593	6.8719	17.5400 
341.109	0.0337	0.1826	1.0366	-0.1373	0.0659	6.6797	17.5300 
341.110	0.0669	0.1226	1.1143	-0.0824	-0.0769	6.4655	17.5400 
341.110	0.1011	0.0928	1.2046	-0.0330	-0.2911	6.2128	17.5400 
341.110	0.0864	0.0161	1.2588	0.0494	-0.5328	5.9326	17.5300 
341.110	0.1001	-0.0283	1.3027	0.1428	-0.7141	5.5865	17.5300 
341.120	0.1606	-0.0298	1.2285	0.3680	-0.9229	5.3119	17.5400 
341.137	0.2031	-0.0273	1.0938	0.6537	-1.1151	5.1361	17.5300 
341.264	0.2241	-0.0688	1.0273	0.9448	-1.2964	5.0702	17.5400 
341.270	0.2188	-0.1650	1.0854	1.0876	-1.3788	4.9823	17.5400 
341.270	0.1870	-0.1719	1.1338	1.0767	-1.3733	4.7296	17.5500 
341.270	0.1113	-0.1460	1.2017	0.9943	-1.3019	4.3451	17.5400 
341.270	0.0952	-0.1006	1.1650	0.8844	-1.1920	3.9331	17.5300 
341.270	0.0845	-0.0591	1.0420	0.7635	-1.0107	3.5706	17.5300 
341.278	0.0586	-0.0576	0.9619	0.6537	-0.7635	3.2520	17.5300 
341.298	0.0483	-0.0210	0.8770	0.5933	-0.4944	2.9718	17.5200 
341.322	0.0723	-0.0107	0.8301	0.5713	-0.2527	2.7411	17.5400 
341.343	0.0889	-0.0269	0.8286	0.5603	-0.0659	2.5378	17.5200 
341.355	0.0771	-0.0459	0.8594	0.5603	0.0604	2.3291	17.5300 
341.476	0.0649	-0.0474	0.9004	0.5823	0.1373	2.1259	17.5300 
341.490	0.0776	-0.0210	0.9097	0.6097	0.1758	1.9885	17.5300 
341.490	0.0972	0.0161	0.9399	0.5988	0.1978	1.9281	17.5300 
341.490	0.1040	0.0366	0.9644	0.5383	0.2362	1.8896	17.5400 
341.490	0.1030	0.0479	0.9849	0.4614	0.2637	1.8842	17.5300 
341.490	0.0972	0.0562	0.9995	0.3735	0.2692	1.9006	17.5300 
341.496	0.1064	0.0381	1.0264	0.2637	0.2856	1.9501	17.5200 
341.514	0.1147	0.0205	1.0366	0.1373	0.2747	2.0599	17.5100 
341.534	0.1064	0.0229	1.0415	0.0494	0.2637	2.2632	17.5100 
341.556	0.1069	0.0410	1.0405	0.0220	0.2417	2.5433	17.5300 
341.576	0.1323	0.1030	1.0469	0.0549	0.2032	2.9059	17.5200 
341.681	0.1582	0.1250	1.0391	0.1373	0.1483	3.3289	17.5300 
341.692	0.1812	0.1514	1.0352	0.2252	0.1044	3.7738	17.5300 
341.692	0.1802	0.1797	1.0337	0.3296	0.0879	4.1748	17.5300 
341.692	0.1797	0.1519	1.0513	0.4340	0.0769	4.5483	17.5200 
341.692	0.1616	0.1265	1.0596	0.5219	0.0714	4.8834	17.5200 
341.699	0.1152	0.0474	1.0488	0.6207	0.0934	5.2020	17.5300 
341.717	0.0776	-0.0132	1.1064	0.7416	0.1538	5.5261	17.5300 
341.738	0.0713	0.0405	1.2427	0.8954	0.2307	5.8887	17.5400 
341.752	0.0967	0.0684	1.2144	1.1591	0.2747	6.3666	17.5400 
341.771	0.0635	0.0913	1.2153	1.4337	0.3351	6.8335	17.5300 
341.898	0.0288	0.0928	1.0928	1.7358	0.3680	7.2180	17.5400 
341.904	-0.0913	-0.0596	1.0146	1.9720	0.4340	7.4597	17.5400 
341.904	-0.1567	-0.1563	1.0376	2.1204	0.4944	7.5970	17.5300 
341.904	-0.1738	-0.1519	1.1514	2.1808	0.5164	7.8223	17.5500 
341.904	-0.0996	-0.0811	1.2090	2.0874	0.5658	8.2233	17.5500 
341.905	0.0166	0.0176	1.1709	1.9116	0.6262	8.8110	17.5300 
341.911	0.0742	0.0620	1.1006	1.7358	0.6372	9.4263	17.5400 
341.933	0.0967	0.0630	0.9951	1.5546	0.5768	9.9261	17.5400 
341.954	0.0708	0.0518	0.9263	1.4008	0.4614	10.2777	17.5300 
341.983	0.0103	0.0278	0.8730	1.2799	0.3186	10.4700	17.5500 
342.004	-0.0210	0.0112	0.8638	1.1755	0.1758	10.5798	17.5600 
342.107	-0.0225	-0.0054	0.8887	1.0931	0.0439	10.6567	17.5500 
342.118	0.0044	0.0166	0.9082	1.0492	-0.0989	10.7501	17.5400 
342.119	0.0396	0.0664	0.8765	1.0822	-0.2856	10.8545	17.5400 
342.119	0.0654	0.0894	0.8779	1.1041	-0.4340	10.9149	17.5400 
342.119	0.0557	0.0732	0.9287	1.0547	-0.4834	10.8545	17.5400 
342.119	0.0151	0.0659	0.9746	1.0107	-0.4724	10.7007	17.5600 
342.129	0.0005	0.0625	0.9844	0.9503	-0.4230	10.5084	17.5600 
342.149	0.0073	0.0771	0.9990	0.8569	-0.3406	10.3052	17.5500 
342.168	0.0186	0.0918	1.0010	0.7635	-0.2527	10.0964	17.5400 
342.188	0.0156	0.1201	0.9932	0.7031	-0.1703	9.8712	17.5500 
342.209	0.0225	0.1265	1.0005	0.6537	-0.1154	9.6405	17.5500 
342.315	0.0425	0.1396	1.0176	0.6262	-0.1208	9.4043	17.5600 
342.327	0.0439	0.1567	1.0308	0.6427	-0.1538	9.1461	17.5500 
342.327	0.0532	0.1445	1.0742	0.6866	-0.2307	8.8824	17.5500 
342.327	0.0371	0.1460	1.0903	0.7471	-0.3131	8.6188	17.5500 
342.327	0.0298	0.1528	1.0669	0.8075	-0.3625	8.3551	17.5700 
342.334	0.0288	0.1577	1.0557	0.8569	-0.3955	8.1244	17.5500 
342.351	0.0313	0.1733	1.0415	0.9009	-0.4395	7.9102	17.5400 
342.474	0.0552	0.1460	1.0835	0.8899	-0.5054	7.6520	17.5400 
342.480	0.1309	0.1035	1.1748	0.8405	-0.6647	7.3444	17.5300 
342.481	0.1079	0.0605	1.1777	0.8679	-0.8514	7.0093	17.5500 
342.481	0.1084	-0.0073	1.2397	0.9009	-0.9888	6.5973	17.5400 
342.481	0.1528	-0.0439	1.2095	0.9833	-1.1481	6.2567	17.5400 
342.481	0.2378	-0.0293	1.0811	1.1536	-1.3568	6.0590	17.5400 
342.487	0.2637	-0.0361	1.0361	1.3623	-1.6534	5.9656	17.5400 
342.509	0.2568	-0.1890	1.0396	1.4282	-1.9446	5.8942	17.5400 
342.533	0.1685	-0.1982	1.1924	1.2909	-2.0105	5.5865	17.5400 
342.558	0.0806	-0.1665	1.2158	1.1700	-1.9446	5.1141	17.5500 
342.577	0.0615	-0.0791	1.1538	1.0492	-1.8018	4.6747	17.5300 
342.695	0.0869	0.0000	0.9966	0.9119	-1.5820	4.3561	17.5300 
342.708	0.0957	-0.0029	0.8931	0.7361	-1.3074	4.1309	17.5400 
342.708	0.0996	-0.0327	0.8232	0.5603	-1.0272	3.9771	17.5400 
342.708	0.0942	-0.0488	0.8164	0.3900	-0.8020	3.8068	17.5500 
342.708	0.0771	-0.0674	0.8574	0.2417	-0.6262	3.6145	17.5400 
342.708	0.0806	-0.0898	0.9082	0.1099	-0.4834	3.4222	17.5400 
342.715	0.1045	-0.0767	0.9575	0.0165	-0.3900	3.2739	17.5400 
342.728	0.1191	-0.0508	0.9731	-0.0275	-0.3076	3.2080	17.5300 
342.751	0.1382	0.0088	0.9688	-0.0439	-0.2417	3.2190	17.5500 
342.773	0.1470	0.0352	0.9790	-0.0549	-0.1923	3.2794	17.5400 
342.793	0.1499	0.0503	0.9995	-0.0824	-0.1648	3.3673	17.5400 
342.902	0.1450	0.0513	0.9976	-0.1044	-0.1593	3.4607	17.5500 
342.915	0.1519	0.0352	0.9917	-0.1593	-0.1483	3.5651	17.5400 
342.915	0.1538	0.0244	1.0098	-0.2362	-0.1318	3.6749	17.5400 
342.915	0.1548	0.0347	1.0195	-0.2911	-0.0989	3.8287	17.5300 
342.915	0.1558	0.0527	1.0239	-0.3241	-0.0494	4.0045	17.5300 
342.915	0.1650	0.0923	1.0371	-0.3131	0.0110	4.1968	17.5400 
342.924	0.1733	0.1157	1.0405	-0.2692	0.0934	4.3945	17.5300 
342.943	0.1851	0.1260	1.0435	-0.2252	0.1868	4.5868	17.5400 
342.966	0.1753	0.1299	1.0679	-0.1758	0.2966	4.7516	17.5500 
342.986	0.1670	0.1289	1.0757	-0.1263	0.4175	4.8724	17.5400 
343.008	0.1519	0.1006	1.0581	-0.0604	0.5383	4.9768	17.5400 
343.136	0.1235	0.0796	1.0493	0.0220	0.6702	5.0977	17.5500 
343.143	0.0781	0.0132	1.0859	0.1428	0.8020	5.2460	17.5500 
343.143	0.0513	0.0020	1.1655	0.2911	0.9503	5.4053	17.5400 
343.143	0.0571	0.0479	1.1919	0.5219	1.0767	5.6415	17.5400 
343.143	0.0454	0.0205	1.2212	0.7965	1.1810	5.9216	17.5400 
343.143	0.0010	0.0435	1.1987	1.1481	1.2085	6.2128	17.5500 
343.143	-0.0625	0.0552	1.1021	1.5436	1.2469	6.4545	17.5300 
343.165	-0.1260	-0.0303	0.9863	1.8073	1.3623	6.6248	17.5400 
343.182	-0.1514	-0.1191	1.0366	1.8896	1.5051	6.7786	17.5500 
343.284	-0.1025	-0.1196	1.1348	1.7798	1.5710	7.0148	17.5400 
343.297	-0.0386	-0.0776	1.1426	1.5985	1.5381	7.3553	17.5500 
343.297	0.0337	-0.0435	1.1074	1.3733	1.4777	7.7069	17.5400 
343.297	0.0391	-0.0381	1.0664	1.1426	1.4502	7.9980	17.5400 
343.297	0.0288	-0.0229	0.9868	0.9613	1.4502	8.2013	17.5400 
343.303	0.0117	-0.0112	0.9336	0.8350	1.4502	8.3331	17.5400 
343.321	-0.0186	-0.0010	0.9063	0.8020	1.4557	8.3936	17.5600 
343.341	-0.0308	-0.0034	0.9175	0.8185	1.4832	8.4265	17.5600 
343.363	-0.0254	0.0049	0.9351	0.8514	1.5271	8.4265	17.5600 
343.383	-0.0259	0.0127	0.9380	0.8954	1.5875	8.4100	17.5600 
343.495	-0.0229	0.0493	0.9619	0.9283	1.6644	8.3661	17.5700 
343.507	-0.0107	0.0679	0.9775	0.9174	1.7688	8.2507	17.5500 
343.507	-0.0107	0.0815	0.9697	0.8844	1.9006	8.0585	17.5500 
343.507	-0.0166	0.0879	0.9624	0.8624	2.0380	7.8113	17.5400 
343.508	-0.0220	0.0791	0.9673	0.8405	2.1478	7.5366	17.5500 
343.508	-0.0244	0.0840	0.9624	0.8185	2.2357	7.2620	17.5300 
343.530	-0.0210	0.0952	0.9595	0.7855	2.2961	6.9928	17.5500 
343.552	-0.0161	0.1123	0.9668	0.7471	2.3346	6.7291	17.5500 
343.559	0.0000	0.1338	0.9775	0.7031	2.3291	6.4655	17.5500 
343.579	0.0024	0.1465	0.9771	0.6482	2.3071	6.1853	17.5500 
343.600	0.0034	0.1465	0.9629	0.5933	2.2687	5.8667	17.5400 
343.701	0.0020	0.1328	0.9653	0.5493	2.2028	5.5536	17.5500 
343.713	-0.0073	0.1182	1.0161	0.5219	2.0874	5.2734	17.5500 
343.713	-0.0107	0.1235	1.0679	0.4944	1.9556	5.0262	17.5400 
343.713	0.0088	0.1655	1.0972	0.4559	1.8347	4.8395	17.5400 
343.713	0.0269	0.1812	1.1006	0.3955	1.7249	4.6967	17.5500 
343.719	0.0430	0.1807	1.0693	0.3076	1.6425	4.5648	17.5400 
343.738	0.0366	0.1768	1.0503	0.2197	1.5710	4.4110	17.5400 
343.759	0.0220	0.1465	1.0508	0.1208	1.4941	4.2078	17.5500 
343.780	0.0269	0.1089	1.0962	0.0165	1.3953	3.9825	17.5400 
343.802	0.0693	0.0591	1.1958	-0.0549	1.2195	3.7408	17.5400 
343.911	0.0742	0.0190	1.2280	-0.0769	0.9943	3.5431	17.5700 
343.924	0.0537	-0.0254	1.2622	-0.0494	0.8130	3.3948	17.5400 
343.924	0.0776	-0.0391	1.1914	0.1154	0.6592	3.3838	17.5400 
343.924	0.1069	-0.0337	1.1313	0.3406	0.5548	3.4937	17.5400 
343.924	0.1802	-0.0137	1.0239	0.5548	0.4504	3.6969	17.5400 
343.924	0.1938	-0.0518	1.0176	0.6592	0.3296	3.8782	17.5400 
343.947	0.1646	-0.1729	1.0908	0.6042	0.2802	3.9276	17.5400 
343.966	0.1079	-0.2139	1.1572	0.4889	0.3406	3.8507	17.5400 
343.989	0.0396	-0.1841	1.1631	0.3461	0.4944	3.7518	17.5300 
343.998	0.0356	-0.1260	1.1289	0.1593	0.7306	3.7408	17.5500 
344.017	0.0562	-0.0396	1.0200	0.0000	1.0162	3.8232	17.5500 
344.114	0.0767	0.0039	0.9302	-0.1263	1.3239	3.9386	17.5500 
344.125	0.0869	0.0322	0.8208	-0.2087	1.6150	4.0265	17.5500 
344.126	0.0649	0.0127	0.7993	-0.2417	1.8567	4.0210	17.5600 
344.127	0.0205	-0.0435	0.8530	-0.2747	2.0490	3.9111	17.5400 
344.127	0.0161	-0.0728	0.9048	-0.3241	2.2028	3.7738	17.5300 
344.139	0.0381	-0.0493	0.9565	-0.3351	2.2961	3.6804	17.5600 
344.156	0.0674	-0.0103	0.9834	-0.3351	2.3621	3.6639	17.5500 
344.176	0.1021	0.0391	1.0054	-0.3021	2.4060	3.7079	17.5500 
344.197	0.1064	0.0620	1.0103	-0.2637	2.4335	3.7738	17.5600 
344.218	0.0889	0.0874	1.0068	-0.2307	2.4609	3.8562	17.5500 
344.325	0.0796	0.0806	1.0098	-0.2307	2.4939	3.9496	17.5600 
344.338	0.0645	0.0439	1.0049	-0.2911	2.5323	4.0814	17.5500 
344.339	0.0586	0.0361	1.0054	-0.3735	2.5983	4.2407	17.5600 
344.339	0.0605	0.0332	1.0215	-0.4504	2.6917	4.4385	17.5500 
344.339	0.0625	0.0352	1.0498	-0.5109	2.8125	4.6802	17.5400 
344.345	0.0864	0.0713	1.0737	-0.5383	2.9333	4.9768	17.5500 
344.360	0.1157	0.1050	1.0762	-0.5383	3.0377	5.3174	17.5600 
344.384	0.1392	0.1216	1.0854	-0.5603	3.1366	5.6525	17.5600 
344.406	0.1318	0.1255	1.0762	-0.5603	3.2135	5.9491	17.5500 
344.417	0.1089	0.1221	1.0361	-0.5328	3.2684	6.2018	17.5400 
344.435	0.0786	0.0908	1.0010	-0.4944	3.3124	6.4270	17.5600 
344.532	0.0127	-0.0273	1.0127	-0.4285	3.3289	6.6852	17.5500 
344.545	-0.0303	-0.0664	1.1729	-0.3296	3.3124	6.9928	17.5500 
344.545	0.0337	0.0522	1.1699	-0.1208	3.2025	7.3608	17.5400 
344.545	0.0317	0.0347	1.1357	0.1208	3.0927	7.7399	17.5400 
344.545	-0.0342	-0.0044	1.1738	0.3735	2.9773	8.0200	17.5500 
344.555	-0.0986	0.0127	1.1333	0.6976	2.8070	8.2672	17.5500 
344.573	-0.1665	-0.0015	1.0654	0.9668	2.6587	8.4595	17.5600 
344.593	-0.1929	-0.0278	1.0537	1.1371	2.5433	8.6517	17.5600 
344.614	-0.1523	-0.0645	1.1484	1.1041	2.4170	8.9209	17.5600 
344.633	-0.0815	-0.0493	1.1255	0.9283	2.2852	9.2615	17.5700 
344.736	-0.0356	-0.0264	1.0938	0.6372	2.2083	9.5801	17.5600 
344.750	-0.0122	-0.0132	1.0610	0.2856	2.1533	9.8547	17.5600 
344.750	-0.0034	0.0103	0.9849	-0.0385	2.0929	10.0964	17.5500 
344.750	-0.0093	0.0259	0.9321	-0.3186	2.0215	10.2942	17.5500 
344.750	0.0044	0.0313	0.8789	-0.5383	1.9226	10.3986	17.5400 
344.763	0.0059	0.0352	0.8618	-0.7086	1.8182	10.4260	17.5600 
344.775	-0.0020	0.0313	0.8623	-0.8569	1.7194	10.3876	17.5600 
344.798	-0.0332	0.0181	0.8911	-0.9833	1.6370	10.3107	17.5500 
344.820	-0.0303	0.0269	0.9170	-1.1316	1.5765	10.2283	17.5500 
344.846	-0.0059	0.0259	0.9575	-1.3129	1.5216	10.1733	17.5700 
344.952	-0.0093	0.0327	0.9946	-1.5271	1.5106	10.1019	17.5500 
344.965	-0.0083	0.0459	0.9800	-1.7194	1.4996	10.0415	17.5600 
344.966	-0.0005	0.0474	0.9795	-1.9171	1.4722	10.0140	17.5500 
344.966	0.0132	0.0420	0.9844	-2.1149	1.4172	10.0031	17.5500 
344.966	0.0122	0.0400	0.9956	-2.3016	1.3513	9.9701	17.5600 
344.966	0.0029	0.0503	0.9800	-2.4554	1.2854	9.9207	17.5400 
344.972	-0.0024	0.0474	0.9731	-2.5543	1.2250	9.8602	17.5500 
344.992	-0.0093	0.0498	0.9854	-2.5928	1.1481	9.7888	17.5400 
345.113	-0.0093	0.0654	1.0044	-2.5653	1.0437	9.7064	17.5600 
345.120	-0.0034	0.0767	1.0659	-2.4994	0.9229	9.5801	17.5400 
345.120	-0.0044	0.0894	1.1035	-2.4225	0.8075	9.4318	17.5600 
345.121	-0.0288	0.0928	1.1255	-2.3291	0.7086	9.2780	17.5400 
345.121	-0.0420	0.0967	1.1162	-2.2412	0.6262	9.1406	17.5400 
345.121	-0.0254	0.1226	1.0840	-2.1533	0.5603	8.9978	17.5500 
345.130	0.0220	0.1006	1.1099	-2.1094	0.4449	8.8220	17.5700 
345.150	0.1167	0.0791	1.1831	-2.0764	0.1428	8.6133	17.5600 
345.170	0.1270	0.0229	1.2007	-1.9720	-0.2692	8.3716	17.5600 
345.192	0.0996	-0.0679	1.2437	-1.8787	-0.6976	8.0475	17.5500 
345.217	0.1240	-0.1079	1.1968	-1.7249	-1.1096	7.8003	17.5600 
345.325	0.2251	-0.0859	1.0894	-1.4612	-1.5491	7.7124	17.5600 
345.339	0.2715	-0.1123	1.0449	-1.2524	-1.9885	7.7399	17.5700 
345.339	0.2734	-0.2432	1.1138	-1.2854	-2.3236	7.7124	17.5500 
345.339	0.1685	-0.2427	1.2227	-1.3953	-2.5049	7.4982	17.5600 
345.339	0.0767	-0.1777	1.2275	-1.5106	-2.5818	7.2345	17.5600 
345.339	0.0664	-0.1230	1.1426	-1.6534	-2.5598	7.0203	17.5600 
345.359	0.1226	-0.0923	0.9146	-1.8842	-2.4774	6.8829	17.5500 
345.369	0.1367	-0.1118	0.8262	-2.1368	-2.3730	6.8610	17.5500 
345.389	0.1509	-0.1323	0.7695	-2.3346	-2.3126	6.9269	17.5500 
345.408	0.1313	-0.1270	0.8164	-2.4829	-2.2797	6.9653	17.5600 
345.432	0.1157	-0.1201	0.9189	-2.5818	-2.2247	6.9434	17.5400 
345.535	0.1377	-0.1294	0.9502	-2.6312	-2.1808	6.9379	17.5400 
345.547	0.1719	-0.0815	0.9717	-2.6202	-2.1588	6.9928	17.5400 
345.547	0.1787	-0.0356	0.9717	-2.5763	-2.1423	7.0862	17.5500 
345.547	0.2085	0.0151	0.9897	-2.5488	-2.1259	7.2235	17.5500 
345.547	0.2212	0.0171	1.0151	-2.5653	-2.0929	7.3718	17.5400 
345.554	0.2056	0.0044	1.0122	-2.6038	-2.0544	7.5476	17.5400 
345.576	0.1787	0.0068	0.9883	-2.6422	-2.0050	7.7563	17.5500 
345.593	0.1533	0.0161	0.9624	-2.6807	-1.9116	8.0310	17.5400 
345.617	0.1563	0.0205	0.9634	-2.7576	-1.7523	8.3386	17.5400 
345.639	0.1689	0.0254	0.9580	-2.8455	-1.5656	8.6902	17.5400 
345.741	0.1768	0.0439	0.9526	-2.8949	-1.3953	9.0582	17.5500 
345.753	0.1787	0.0718	0.9600	-2.8839	-1.2415	9.4318	17.5400 
345.754	0.1797	0.0693	0.9922	-2.8510	-1.0657	9.8108	17.5400 
345.754	0.1792	0.0820	1.0068	-2.7960	-0.8514	10.2008	17.5400 
345.754	0.1797	0.1069	1.0088	-2.7466	-0.5988	10.5798	17.5600 
345.754	0.1777	0.1147	1.0073	-2.7246	-0.3076	10.9534	17.5300 
345.771	0.1577	0.0835	1.0308	-2.7301	-0.0110	11.3104	17.5400 
345.788	0.1323	0.0361	1.0620	-2.7411	0.2747	11.6675	17.5300 
345.806	0.0698	-0.0498	1.2002	-2.7411	0.5713	12.0135	17.5400 
345.829	0.0347	-0.0801	1.3950	-2.7466	0.8679	12.3376	17.5400 
345.943	0.0400	0.1094	1.4194	-2.6532	1.1206	12.6508	17.5400 
345.949	0.0449	0.2539	1.2251	-2.4500	1.4172	12.8815	17.5300 
345.949	0.0591	0.0884	0.9434	-2.3071	1.6589	13.0737	17.5300 
345.949	0.0112	-0.2275	0.8735	-2.4005	1.6370	13.3484	17.5400 
345.949	-0.1221	-0.3740	1.0474	-2.7466	1.6425	13.3484	17.5400 
345.949	-0.1572	-0.2783	1.1416	-3.1256	1.7249	13.1506	17.5500 
345.965	-0.1631	-0.1909	1.1406	-3.4552	1.8732	13.1287	17.5400 
345.985	-0.0869	-0.1895	1.1289	-3.8013	1.9885	13.3044	17.5400 
346.005	0.0200	-0.1201	1.0986	-4.1748	2.0435	13.4747	17.5500 
346.027	0.0557	-0.0737	1.0220	-4.4275	1.9885	13.5791	17.5400 
346.064	0.0630	-0.0649	0.9004	-4.6033	1.8457	13.6176	17.5500 
346.172	0.0190	-0.0742	0.8701	-4.7406	1.7139	13.5791	17.5300 
346.184	-0.0391	-0.1216	0.9067	-4.8724	1.6589	13.4967	17.5400 
346.185	-0.0229	-0.1265	0.8960	-4.9548	1.6150	13.4528	17.5400 
346.185	0.0117	-0.1045	0.9150	-4.9768	1.5381	13.4583	17.5600 
346.185	0.0376	-0.0649	0.9282	-4.9603	1.4612	13.4418	17.5300 
346.185	0.0474	-0.0156	0.9385	-4.9219	1.4117	13.3429	17.5500 
346.191	0.0352	0.0005	0.9482	-4.8615	1.4337	13.1561	17.5500 
346.207	0.0117	-0.0005	0.9497	-4.7900	1.4722	12.9309	17.5400 
346.319	0.0039	0.0024	0.9434	-4.7076	1.4941	12.6837	17.5400 
346.326	-0.0020	-0.0068	0.9438	-4.6362	1.5051	12.4365	17.5400 
346.327	-0.0034	0.0068	0.9619	-4.5593	1.4832	12.2058	17.5400 
346.327	0.0010	0.0166	1.0137	-4.4879	1.4337	11.9806	17.5400 
346.327	0.0015	0.0288	1.0405	-4.4275	1.3623	11.7389	17.5400 
346.327	0.0181	0.0469	1.0601	-4.3396	1.2579	11.4917	17.5400 
346.355	0.0303	0.0625	1.0669	-4.2133	1.1096	11.2445	17.5300 
346.362	0.0137	0.0693	1.0771	-4.0375	0.9448	10.9973	17.5400 
346.383	0.0063	0.0454	1.0840	-3.8507	0.7965	10.7666	17.5300 
346.403	0.0093	0.0513	1.1162	-3.6749	0.6647	10.5798	17.5400 
346.422	0.0430	0.0259	1.2056	-3.5431	0.5328	10.4205	17.5300 
346.531	0.1475	-0.0098	1.2935	-3.4772	0.3351	10.2612	17.5300 
346.545	0.1777	-0.0410	1.2734	-3.3893	0.1154	10.0854	17.5400 
346.545	0.1611	-0.1104	1.1602	-3.2465	-0.0934	9.9097	17.5400 
346.545	0.1392	-0.1387	1.1069	-3.0048	-0.2966	9.8218	17.5500 
346.546	0.1274	-0.1499	1.0601	-2.7411	-0.4285	9.8383	17.5400 
346.553	0.1641	-0.1587	1.0723	-2.6093	-0.4504	9.8053	17.5400 
346.566	0.1821	-0.1670	1.0825	-2.5763	-0.4614	9.6515	17.5200 
346.588	0.1289	-0.1763	1.1387	-2.5873	-0.4669	9.3713	17.5300 
346.609	0.0806	-0.1768	1.1504	-2.6257	-0.4614	9.0363	17.5200 
346.635	0.0386	-0.1357	1.0728	-2.6862	-0.3571	8.7286	17.5300 
346.746	0.0415	-0.0962	0.9937	-2.7740	-0.1758	8.4979	17.5400 
346.759	0.0840	-0.0557	0.8818	-2.8180	-0.0275	8.3826	17.5300 
346.759	0.1099	-0.0664	0.8315	-2.8180	0.0494	8.3551	17.5500 
346.759	0.1016	-0.0820	0.8164	-2.7795	0.0989	8.3167	17.5200 
346.759	0.0786	-0.0913	0.8320	-2.7246	0.1318	8.2288	17.5400 
346.760	0.0757	-0.1021	0.8789	-2.6642	0.1373	8.1628	17.5200 
346.766	0.0947	-0.0908	0.9258	-2.6202	0.1154	8.1519	17.5500 
346.782	0.1274	-0.0459	0.9873	-2.5653	0.0934	8.2178	17.5300 
346.804	0.1479	0.0000	1.0010	-2.4939	0.0769	8.3386	17.5300 
346.826	0.1802	0.0449	0.9980	-2.4115	0.0604	8.4814	17.5300 
346.847	0.1802	0.0439	1.0010	-2.3291	0.0385	8.6243	17.5300 
346.952	0.1670	0.0107	1.0205	-2.2467	0.0275	8.7561	17.5300 
346.964	0.1479	0.0059	1.0293	-2.1533	0.0330	8.9044	17.5400 
346.965	0.1309	0.0117	1.0518	-2.0270	0.0604	9.1022	17.5200 
346.965	0.1450	0.0161	1.0645	-1.8732	0.0989	9.3823	17.5300 
346.965	0.1709	0.0747	1.0796	-1.6754	0.1703	9.7009	17.5300 
346.971	0.1860	0.1187	1.0449	-1.4447	0.2692	10.0085	17.5400 
346.986	0.1729	0.1113	0.9902	-1.2195	0.4175	10.2393	17.5300 
347.007	0.1304	0.0293	0.9800	-1.0162	0.5768	10.4480	17.5100 
347.032	0.0000	-0.1255	1.1567	-0.8075	0.7141	10.6842	17.5200 
347.049	-0.0142	-0.0664	1.2949	-0.5273	0.7855	10.9698	17.5200 
347.157	0.0166	0.0591	1.2090	-0.0824	0.7910	11.3654	17.5300 
347.169	-0.0054	0.1147	1.1567	0.3680	0.8295	11.7334	17.5400 
347.169	-0.0635	0.0732	1.0835	0.7416	0.9283	11.9751	17.5400 
347.169	-0.1060	-0.0063	1.0767	0.8899	1.0602	12.0355	17.5300 
347.169	-0.1851	-0.0986	1.1587	0.8679	1.2360	12.0081	17.5300 
347.169	-0.1821	-0.1040	1.2178	0.6976	1.3898	12.0795	17.5300 
347.178	-0.0723	-0.0479	1.1812	0.4614	1.4722	12.3157	17.5300 
347.197	0.0093	-0.0303	1.0986	0.1813	1.4832	12.6672	17.5200 
347.219	0.0581	0.0132	0.9800	-0.0879	1.4282	13.0463	17.5200 
347.238	0.0605	0.0376	0.9111	-0.3516	1.3348	13.3759	17.5400 
347.259	0.0220	0.0278	0.8545	-0.5768	1.2469	13.5901	17.5300 
347.363	-0.0010	0.0176	0.8447	-0.7690	1.1591	13.6890	17.5300 
347.375	-0.0127	-0.0020	0.8662	-0.9393	1.0602	13.7000	17.5300 
347.375	-0.0093	0.0059	0.8774	-1.0602	0.9503	13.6945	17.5400 
347.375	0.0044	0.0127	0.8989	-1.1261	0.8514	13.6835	17.5200 
347.375	0.0098	0.0313	0.9258	-1.1810	0.8020	13.6450	17.5300 
347.381	0.0244	0.0542	0.9502	-1.2195	0.7910	13.5571	17.5200 
347.397	0.0088	0.0571	0.9497	-1.2744	0.8130	13.4363	17.5300 
347.419	-0.0254	0.0444	0.9800	-1.3403	0.8569	13.3209	17.5300 
347.442	-0.0381	0.0488	0.9766	-1.4337	0.8954	13.2166	17.5200 
347.463	-0.0293	0.0615	0.9595	-1.5601	0.9283	13.1177	17.5300 
347.571	-0.0166	0.0645	0.9575	-1.6974	0.9613	13.0188	17.5200 
347.585	-0.0049	0.0698	0.9731	-1.7908	0.9503	12.9364	17.5300 
347.585	0.0181	0.0762	1.0176	-1.8512	0.8624	12.8705	17.5100 
347.585	0.0229	0.0723	1.0742	-1.8787	0.7196	12.8101	17.5300 
347.585	0.0200	0.0747	1.1362	-1.8622	0.5603	12.7496	17.5200 
347.586	0.0127	0.1021	1.1411	-1.7853	0.4065	12.7002	17.5100 
347.605	0.0269	0.1431	1.1167	-1.6809	0.2802	12.6563	17.5300 
347.615	0.0371	0.1558	1.0830	-1.5710	0.1593	12.6013	17.5100 
347.635	0.0596	0.1060	1.1440	-1.4941	0.0165	12.4969	17.5400 
347.655	0.1060	0.0796	1.2192	-1.4447	-0.2087	12.3706	17.5000 
347.677	0.0967	0.0161	1.2529	-1.4008	-0.4340	12.2333	17.5200 
347.781	0.1118	-0.0220	1.2397	-1.3898	-0.5933	12.0465	17.5300 
347.795	0.1602	-0.0601	1.1191	-1.3184	-0.7690	11.9586	17.5300 
347.795	0.1768	-0.0815	1.0127	-1.1865	-0.9888	11.9916	17.5100 
347.795	0.2017	-0.1572	1.0107	-1.1700	-1.1316	12.0520	17.5000 
347.795	0.1987	-0.2412	1.0581	-1.3239	-1.1975	11.9971	17.5100 
347.802	0.1089	-0.2344	1.2104	-1.5546	-1.1481	11.7169	17.5100 
347.819	0.0640	-0.1953	1.2407	-1.7743	-1.0602	11.3983	17.5100 
347.842	0.0552	-0.0952	1.1255	-1.9556	-0.9229	11.1621	17.5200 
347.866	0.0713	-0.0337	1.0142	-2.1368	-0.7196	10.9863	17.5200 
347.874	0.1074	-0.0308	0.9038	-2.3401	-0.4999	10.8655	17.5100 
347.893	0.1221	-0.0796	0.8457	-2.5214	-0.3296	10.7941	17.5300 
347.993	0.0889	-0.0894	0.8105	-2.6202	-0.1978	10.7007	17.5200 
348.007	0.0591	-0.0884	0.8301	-2.6477	-0.0989	10.5688	17.5200 
348.007	0.0708	-0.1040	0.8813	-2.6367	-0.0604	10.4700	17.5200 
348.007	0.0928	-0.0933	0.8960	-2.5928	-0.0494	10.4370	17.5200 
348.007	0.1318	-0.0332	0.9248	-2.5543	-0.0165	10.4150	17.5200 
348.013	0.1538	-0.0205	0.9595	-2.5818	0.0439	10.4370	17.5100 
348.032	0.1587	-0.0122	1.0137	-2.6312	0.1099	10.4810	17.5000 
348.052	0.1538	-0.0083	1.0303	-2.6532	0.1483	10.5359	17.5000 
348.074	0.1294	-0.0151	1.0464	-2.6422	0.1868	10.6073	17.4900 
348.095	0.1108	-0.0205	1.0356	-2.6038	0.2252	10.7117	17.5000 
348.195	0.0977	-0.0054	1.0269	-2.5269	0.2802	10.8490	17.5000 
348.206	0.1060	0.0171	1.0264	-2.4005	0.3296	11.0358	17.5100 
348.206	0.1450	0.0483	1.0376	-2.1973	0.3516	11.3049	17.5100 
348.207	0.1729	0.0776	1.0459	-1.9501	0.3680	11.6071	17.5000 
348.207	0.1958	0.1411	1.0410	-1.6754	0.4175	11.8542	17.5000 
348.213	0.2017	0.1333	1.0322	-1.3953	0.4944	12.0465	17.5100 
348.231	0.1265	0.0195	0.9976	-1.1206	0.5713	12.2333	17.5000 
348.251	0.0239	-0.0869	1.0742	-0.8459	0.7031	12.4255	17.5100 
348.273	-0.0332	-0.0728	1.2896	-0.5273	0.8405	12.6672	17.4800 
348.293	0.0024	0.0371	1.2725	-0.0934	0.9174	13.0188	17.5000 
348.398	0.0117	0.0898	1.1978	0.3845	0.9338	13.4692	17.5000 
348.411	-0.0449	0.0732	1.1396	0.8514	0.9778	13.8593	17.5000 
348.411	-0.1260	0.0200	1.1001	1.2305	1.0931	14.0570	17.5000 
348.411	-0.1689	-0.0723	1.1470	1.4063	1.2524	14.1339	17.5100 
348.411	-0.1680	-0.0400	1.1445	1.4337	1.3623	14.2603	17.5200 
348.419	-0.0522	0.0010	1.1265	1.2909	1.3678	14.5184	17.5100 
348.435	0.0225	-0.0073	1.1001	1.0382	1.2634	14.8535	17.5100 
348.457	0.0767	0.0020	1.0063	0.7800	1.0822	15.1831	17.5000 
348.479	0.0674	0.0171	0.9414	0.5658	0.8844	15.4523	17.5000 
348.501	0.0327	0.0122	0.8740	0.3680	0.6757	15.6445	17.4900 
348.606	0.0132	0.0063	0.8765	0.1868	0.4834	15.7709	17.5000 
348.618	0.0215	0.0210	0.8784	0.0549	0.2911	15.8533	17.5000 
348.618	0.0278	0.0400	0.8882	-0.0439	0.1263	15.9137	17.4900 
348.618	0.0503	0.0708	0.8955	-0.1263	0.0165	15.9302	17.5000 
348.618	0.0635	0.0659	0.8994	-0.2417	-0.0385	15.8917	17.4900 
348.618	0.0518	0.0566	0.9360	-0.4065	-0.0439	15.7599	17.4900 
348.641	0.0317	0.0464	0.9575	-0.6152	0.0000	15.5621	17.4800 
348.649	0.0020	0.0537	0.9634	-0.8295	0.0989	15.3149	17.4700 
348.668	-0.0020	0.0640	0.9614	-1.0492	0.2307	15.0513	17.4900 
348.688	0.0005	0.0664	0.9575	-1.2854	0.3900	14.7656	17.4800 
348.709	0.0005	0.0601	0.9346	-1.4996	0.5273	14.4855	17.4900 
348.812	-0.0264	0.0322	0.9502	-1.6699	0.6152	14.2328	17.4800 
348.825	-0.0366	0.0386	1.0029	-1.7963	0.6372	14.0240	17.4900 
348.825	-0.0039	0.0957	1.0933	-1.8677	0.5438	13.8483	17.4600 
348.825	0.0234	0.1265	1.1211	-1.8896	0.3790	13.6945	17.4700 
348.825	0.0273	0.1304	1.1270	-1.8567	0.1868	13.5626	17.4700 
348.830	0.0171	0.1226	1.1060	-1.7908	0.0330	13.4308	17.4800 
348.848	0.0093	0.1255	1.0688	-1.7413	-0.0769	13.3154	17.4700 
348.967	0.0376	0.1196	1.1069	-1.7413	-0.2087	13.2166	17.4800 
348.973	0.1392	0.0864	1.2178	-1.8182	-0.4504	13.1122	17.4800 
348.973	0.1440	0.0322	1.2729	-1.8842	-0.7745	12.9913	17.4700 
348.973	0.1660	-0.0889	1.3613	-1.9775	-1.0712	12.8101	17.4600 
348.973	0.2085	-0.0835	1.2661	-1.9556	-1.4612	12.7277	17.4800 
348.973	0.2544	-0.1333	1.1743	-1.8402	-1.8457	12.9089	17.4700 
348.987	0.2715	-0.1655	1.0547	-1.7468	-2.1643	13.2056	17.4700 
349.006	0.2305	-0.2070	1.0283	-1.8567	-2.2467	13.3154	17.4700 
349.027	0.1323	-0.2271	1.0913	-2.0929	-2.1204	13.1287	17.4700 
349.046	0.0054	-0.2007	1.1177	-2.3126	-1.8347	12.7222	17.4700 
349.066	0.0044	-0.1616	1.0137	-2.4829	-1.5436	12.3871	17.4700 
349.155	0.0591	-0.0879	0.8760	-2.6917	-1.2415	12.2003	17.4700 
349.165	0.1001	-0.0850	0.8335	-2.9333	-0.9613	12.1344	17.4600 
349.165	0.1401	-0.1221	0.8130	-3.1586	-0.7416	12.0959	17.4700 
349.165	0.1138	-0.1226	0.8662	-3.3398	-0.5768	11.9751	17.4600 
349.171	0.0825	-0.1250	0.9360	-3.4277	-0.4559	11.7609	17.4500 
349.188	0.0869	-0.1284	0.9458	-3.4607	-0.3955	11.6125	17.4700 
349.210	0.1040	-0.1055	0.9668	-3.4772	-0.3516	11.5686	17.4500 
349.233	0.1255	-0.0649	0.9717	-3.4662	-0.3186	11.6125	17.4600 
349.253	0.1504	-0.0317	0.9692	-3.4222	-0.3406	11.7609	17.4600 
349.345	0.1758	-0.0112	0.9521	-3.3893	-0.3955	11.9531	17.4500 
349.356	0.1689	-0.0015	0.9575	-3.3728	-0.4449	12.1014	17.4500 
349.356	0.1509	-0.0352	0.9961	-3.3948	-0.4614	12.2278	17.4400 
349.356	0.1426	-0.0337	1.0171	-3.4222	-0.4230	12.3431	17.4500 
349.356	0.1587	-0.0142	1.0234	-3.4277	-0.3406	12.4750	17.4500 
349.364	0.1689	-0.0093	1.0259	-3.4113	-0.2197	12.6398	17.4500 
349.384	0.1626	0.0278	1.0684	-3.3508	-0.0549	12.7771	17.4500 
349.404	0.1704	0.0625	1.0630	-3.2300	0.0714	12.9254	17.4500 
349.424	0.1812	0.0933	1.0293	-3.0597	0.1648	13.0737	17.4500 
349.444	0.1851	0.1050	1.0146	-2.8510	0.2197	13.2330	17.4500 
349.464	0.1792	0.0889	1.0020	-2.6422	0.2747	13.3868	17.4500 
349.484	0.1514	0.0376	0.9907	-2.4390	0.3351	13.5626	17.4500 
349.576	0.0537	-0.1113	1.0410	-2.2577	0.4449	13.7823	17.4400 
349.582	0.0098	-0.1396	1.1646	-2.0435	0.5658	14.0186	17.4500 
349.582	0.0317	0.0166	1.2271	-1.6534	0.5933	14.3646	17.4500 
349.582	0.0361	0.0293	1.2461	-1.2305	0.5933	14.7876	17.4400 
349.589	-0.0127	0.0068	1.1729	-0.9119	0.6757	15.0897	17.4500 
349.612	-0.0898	0.0464	1.1343	-0.7416	0.9558	15.1392	17.4400 
349.632	-0.1836	-0.0981	1.0723	-0.7086	1.2579	15.1282	17.4600 
349.653	-0.2148	-0.1655	1.1719	-0.8295	1.4832	15.1996	17.4500 
349.664	-0.0674	-0.1016	1.1895	-1.0052	1.4832	15.4907	17.4400 
349.683	0.0044	-0.0420	1.1377	-1.2030	1.4008	15.8643	17.4500 
349.763	0.0635	-0.0225	1.0278	-1.4227	1.2909	16.2213	17.4500 
349.771	0.0708	-0.0278	0.9722	-1.6754	1.1810	16.5125	17.4400 
349.771	0.0352	-0.0298	0.8945	-1.9336	1.0712	16.6937	17.4300 
349.771	0.0083	-0.0371	0.8872	-2.1423	0.9723	16.7542	17.4500 
349.782	-0.0063	-0.0337	0.9141	-2.2906	0.8734	16.7596	17.4500 
349.802	-0.0078	0.0044	0.9087	-2.3346	0.7635	16.6992	17.4400 
349.821	-0.0029	0.0156	0.8765	-2.2961	0.6647	16.6278	17.4500 
349.841	0.0137	-0.0220	0.8779	-2.2632	0.5658	16.5784	17.4400 
349.862	0.0015	0.0132	0.9336	-2.2797	0.5438	16.4575	17.4400 
349.882	0.0093	0.0264	0.9365	-2.3236	0.5548	16.2872	17.4400 
349.903	0.0137	0.0459	0.9385	-2.3730	0.5603	16.1169	17.4400 
350.013	0.0098	0.0405	0.9531	-2.4115	0.5548	15.9576	17.4500 
350.019	0.0029	0.0259	0.9854	-2.4719	0.5603	15.8038	17.4300 
350.019	0.0049	0.0371	1.0034	-2.5433	0.5823	15.6226	17.4400 
350.019	0.0088	0.0747	1.0171	-2.5873	0.6042	15.4083	17.4400 
350.019	0.0156	0.0938	1.0283	-2.5928	0.5878	15.1776	17.4200 
350.026	0.0264	0.1055	1.0610	-2.5598	0.4999	14.9414	17.4400 
350.046	0.0142	0.1064	1.0723	-2.4829	0.3571	14.7217	17.4400 
350.067	0.0103	0.1035	1.0747	-2.3785	0.2087	14.5074	17.4500 
350.090	0.0142	0.1089	1.0737	-2.2961	0.0604	14.3207	17.4300 
350.101	0.0571	0.0679	1.1084	-2.2632	-0.0714	14.1394	17.4300 
350.199	0.1128	0.0205	1.2026	-2.3291	-0.2307	13.9087	17.4400 
350.209	0.1460	-0.0190	1.2441	-2.3401	-0.4889	13.6725	17.4300 
350.209	0.1577	-0.0767	1.2661	-2.3291	-0.7581	13.3868	17.4300 
350.209	0.1787	-0.1025	1.2017	-2.2192	-1.0382	13.1781	17.4500 
350.209	0.1792	-0.1421	1.0977	-2.0270	-1.2799	13.1232	17.4300 
350.219	0.1665	-0.1719	1.0679	-1.8842	-1.4667	13.1561	17.4400 
350.239	0.1543	-0.2231	1.1064	-1.8787	-1.5106	13.1122	17.4400 
350.259	0.1182	-0.2119	1.1621	-1.9666	-1.4502	12.8815	17.4400 
350.279	0.0654	-0.1675	1.1934	-2.0654	-1.3348	12.5848	17.4200 
350.299	0.0640	-0.1162	1.1289	-2.1643	-1.1810	12.3212	17.4300 
350.385	0.0957	-0.0566	1.0054	-2.2906	-1.0052	12.1179	17.4300 
350.397	0.1172	-0.0474	0.9326	-2.4060	-0.8569	11.9586	17.4400 
350.397	0.1406	-0.0518	0.8579	-2.4774	-0.7526	11.8213	17.4300 
350.397	0.1245	-0.0562	0.8564	-2.5214	-0.6427	11.6400	17.4300 
350.403	0.0811	-0.0630	0.8804	-2.5104	-0.5328	11.4203	17.4300 
350.419	0.0801	-0.0830	0.8838	-2.4664	-0.4779	11.2720	17.4300 
350.440	0.0864	-0.0845	0.8945	-2.4060	-0.4669	11.2006	17.4400 
350.461	0.1055	-0.0513	0.9028	-2.3401	-0.4395	11.1676	17.4300 
350.484	0.1367	0.0054	0.9365	-2.3236	-0.3571	11.1511	17.4200 
350.572	0.1489	0.0186	0.9688	-2.3511	-0.2582	11.1566	17.4300 
350.582	0.1514	0.0093	1.0078	-2.4060	-0.1868	11.1951	17.4200 
350.583	0.1514	-0.0005	1.0249	-2.4719	-0.1044	11.2555	17.4500 
350.583	0.1499	-0.0317	1.0449	-2.5378	-0.0055	11.3544	17.4300 
350.583	0.1426	-0.0288	1.0610	-2.5873	0.0989	11.4917	17.4400 
350.604	0.1304	0.0020	1.0757	-2.5708	0.2142	11.6675	17.4300 
350.627	0.1362	0.0308	1.0874	-2.4939	0.3186	11.8652	17.4300 
350.636	0.1548	0.0835	1.0767	-2.3730	0.4120	12.0575	17.4200 
350.666	0.1748	0.1060	1.0430	-2.2137	0.5109	12.2278	17.4300 
350.679	0.1641	0.0762	1.0049	-2.0105	0.6042	12.3816	17.4400 
350.698	0.1294	0.0239	1.0205	-1.7908	0.6866	12.5464	17.4400 
350.720	0.0396	-0.0708	1.1797	-1.5820	0.7745	12.7112	17.4400 
350.819	0.0215	-0.0083	1.2998	-1.3293	0.8569	12.8925	17.4300 
350.829	0.0156	0.0146	1.2246	-0.9558	0.9064	13.1836	17.4300 
350.829	-0.0166	0.0313	1.2036	-0.5658	0.9888	13.4912	17.4400 
350.829	-0.0518	0.0557	1.0020	-0.1593	1.0657	13.7714	17.4500 
350.829	-0.0825	-0.0190	0.9189	0.0659	1.2305	13.9032	17.4300 
350.836	-0.1777	-0.1426	0.9985	0.0824	1.4337	13.9032	17.4400 
350.855	-0.1963	-0.1372	1.1006	0.0000	1.5985	13.9362	17.4400 
350.876	-0.1021	-0.0537	1.1548	-0.1868	1.6864	14.1669	17.4400 
350.901	-0.0264	-0.0225	1.1348	-0.4175	1.7468	14.5074	17.4400 
350.916	0.0508	0.0015	1.0674	-0.6866	1.7468	14.8260	17.4500 
351.003	0.0571	0.0190	1.0068	-0.9229	1.6864	15.0732	17.4400 
351.015	0.0361	0.0371	0.9180	-1.1206	1.5875	15.2051	17.4500 
351.015	0.0161	0.0249	0.8955	-1.2909	1.4777	15.2655	17.4300 
351.015	-0.0054	0.0249	0.8901	-1.4502	1.3623	15.2545	17.4300 
351.021	-0.0068	0.0112	0.8979	-1.5820	1.2140	15.2380	17.4300 
351.036	0.0010	0.0151	0.8950	-1.6974	1.0492	15.2435	17.4300 
351.058	0.0156	0.0386	0.8989	-1.8073	0.8954	15.2435	17.4200 
351.080	0.0210	0.0425	0.9204	-1.9391	0.7910	15.2161	17.4100 
351.102	0.0127	0.0464	0.9570	-2.0709	0.6976	15.1611	17.4200 
351.193	0.0073	0.0400	0.9751	-2.2028	0.6372	15.0897	17.4200 
351.204	0.0103	0.0498	0.9878	-2.3511	0.5933	15.0183	17.4100 
351.204	0.0093	0.0464	0.9902	-2.5323	0.5823	14.9304	17.4300 
351.204	0.0020	0.0469	0.9688	-2.6862	0.5768	14.8315	17.4100 
351.204	-0.0039	0.0479	0.9775	-2.8235	0.5603	14.7162	17.4200 
351.215	0.0044	0.0459	1.0283	-2.9279	0.4889	14.5953	17.4200 
351.233	0.0215	0.0562	1.0664	-3.0212	0.3680	14.4470	17.4300 
351.252	0.0142	0.0703	1.0781	-3.0432	0.1978	14.2603	17.4200 
351.273	-0.0103	0.0586	1.0889	-3.0212	0.0385	14.0405	17.4300 
351.292	-0.0264	0.0601	1.0874	-2.9553	-0.1099	13.8263	17.4200 
351.380	-0.0054	0.0708	1.0854	-2.8729	-0.2692	13.6450	17.4200 
351.391	0.0771	0.0327	1.1904	-2.8510	-0.4669	13.4747	17.4200 
351.391	0.1582	0.0244	1.2261	-2.8070	-0.7581	13.3044	17.4300 
351.391	0.1548	-0.0425	1.2368	-2.6971	-1.0602	13.0737	17.4200 
351.398	0.1689	-0.1030	1.2432	-2.5983	-1.3403	12.8320	17.4000 
351.415	0.1890	-0.1206	1.1270	-2.3291	-1.7029	12.7661	17.4100 
351.436	0.2217	-0.1509	1.0391	-1.9995	-2.1149	12.9089	17.4200 
351.457	0.2539	-0.2188	1.0562	-1.8018	-2.4335	13.1012	17.4200 
351.480	0.2207	-0.2075	1.1377	-1.8182	-2.5159	12.9639	17.4100 
351.491	0.1201	-0.1694	1.2163	-1.8951	-2.4060	12.5244	17.4200 
351.511	0.0718	-0.1226	1.2085	-1.9556	-2.2083	12.0520	17.4200 
351.532	0.0830	-0.0630	1.0483	-2.0270	-1.9666	11.7059	17.4300 
351.631	0.1084	-0.0234	0.9346	-2.1204	-1.6864	11.4972	17.4200 
351.641	0.1470	-0.0474	0.8159	-2.2302	-1.4337	11.3928	17.4200 
351.641	0.1470	-0.0762	0.7798	-2.3291	-1.2305	11.2885	17.4100 
351.641	0.0908	-0.0820	0.8433	-2.4335	-0.9943	11.0248	17.4100 
351.641	0.0684	-0.1255	0.8765	-2.5159	-0.7855	10.7062	17.4300 
351.652	0.0776	-0.1152	0.9224	-2.5433	-0.6372	10.4315	17.4200 
351.670	0.0933	-0.0732	0.9375	-2.5269	-0.5109	10.2338	17.4100 
351.689	0.1274	-0.0254	0.9414	-2.4884	-0.4175	10.1514	17.4100 
351.709	0.1450	-0.0215	0.9517	-2.4719	-0.3461	10.1678	17.4000 
351.730	0.1484	-0.0020	0.9912	-2.4829	-0.2747	10.2173	17.4000 
351.822	0.1445	-0.0088	1.0034	-2.5323	-0.1758	10.2612	17.4000 
351.831	0.1245	-0.0176	1.0259	-2.6257	-0.0275	10.2832	17.4000 
351.831	0.1172	-0.0112	1.0308	-2.7081	0.1318	10.3326	17.4000 
351.831	0.1216	-0.0010	1.0220	-2.7356	0.2911	10.4810	17.4000 
351.837	0.1318	0.0166	1.0225	-2.7081	0.4340	10.7227	17.3900 
351.854	0.1475	0.0503	1.0400	-2.6202	0.5603	11.0193	17.4000 
351.876	0.1514	0.0938	1.0674	-2.4774	0.6866	11.3544	17.4100 
351.898	0.1665	0.1235	1.0640	-2.2852	0.8020	11.7279	17.4000 
351.919	0.1934	0.1504	1.0586	-2.0984	0.9283	12.0850	17.4100 
352.007	0.1870	0.1377	1.0503	-1.9446	1.0767	12.4036	17.4000 
352.019	0.1294	0.0591	1.0391	-1.8347	1.2634	12.6782	17.4200 
352.019	0.0601	-0.0054	1.0659	-1.7578	1.5106	12.9529	17.4100 
352.019	-0.0278	-0.0747	1.2041	-1.6754	1.7908	13.2550	17.3900 
352.019	-0.0308	-0.0015	1.2915	-1.5161	2.0325	13.6011	17.4100 
352.028	0.0420	0.0894	1.2222	-1.2360	2.1313	14.0735	17.4000 
352.048	0.0176	0.1470	1.1646	-0.9668	2.2083	14.4250	17.4100 
352.068	-0.0620	0.0024	0.9351	-0.7800	2.2632	14.6503	17.4200 
352.087	-0.1616	-0.1089	1.0039	-0.8295	2.4225	14.6448	17.4100 
352.106	-0.2529	-0.2285	1.1211	-0.9558	2.5104	14.6887	17.4100 
352.191	-0.2012	-0.1646	1.1846	-1.1700	2.5488	14.8810	17.4000 
352.200	-0.0605	-0.0811	1.1689	-1.4941	2.5488	15.2380	17.4100 
352.200	-0.0039	-0.0586	1.1211	-1.8457	2.5159	15.6335	17.4000 
352.200	0.0435	-0.0542	1.0371	-2.1918	2.4170	15.9686	17.4000 
352.207	0.0308	-0.0488	0.9697	-2.4884	2.2742	16.2103	17.4100 
352.226	-0.0103	-0.0322	0.8979	-2.6971	2.1149	16.3586	17.3900 
352.246	-0.0146	-0.0293	0.8579	-2.8455	1.9171	16.4740	17.3800 
352.267	-0.0098	-0.0190	0.8701	-2.9608	1.7249	16.5564	17.4100 
352.286	-0.0029	-0.0117	0.8799	-3.0267	1.5546	16.5948	17.4100 
352.306	0.0054	0.0103	0.8818	-3.0817	1.4392	16.5674	17.4100 
352.329	0.0156	0.0161	0.8872	-3.1311	1.3623	16.4905	17.4000 
352.443	0.0273	-0.0083	0.9111	-3.2135	1.2799	16.4136	17.4200 
352.450	0.0103	-0.0146	0.9551	-3.3289	1.2140	16.3147	17.4000 
352.450	-0.0093	-0.0181	0.9683	-3.4222	1.1591	16.2323	17.4100 
352.450	-0.0044	-0.0117	0.9707	-3.4991	1.0986	16.2103	17.4100 
352.450	0.0132	0.0317	0.9878	-3.5596	1.0437	16.2103	17.3900 
352.450	0.0317	0.0703	0.9922	-3.5980	0.9833	16.1938	17.3900 
352.465	0.0508	0.1045	1.0078	-3.6255	0.8954	16.1334	17.4100 
352.485	0.0449	0.0991	1.0273	-3.6365	0.7965	15.9961	17.4000 
352.505	0.0254	0.0674	1.0840	-3.6420	0.6976	15.7764	17.4000 
352.525	-0.0132	0.0454	1.1138	-3.6365	0.6042	15.5017	17.4100 
352.545	-0.0386	0.0581	1.1318	-3.6200	0.5768	15.1447	17.4000 
352.625	-0.0308	0.0605	1.1084	-3.6255	0.5768	14.7766	17.4100 
352.635	0.0171	0.0972	1.0610	-3.5815	0.5383	14.4965	17.4100 
352.635	0.0781	0.0449	1.1118	-3.5706	0.4120	14.2712	17.4100 
352.635	0.1313	-0.0122	1.2271	-3.5760	0.1318	14.0790	17.4000 
352.644	0.1260	-0.0811	1.2939	-3.5321	-0.1868	13.8757	17.4100 
352.663	0.1709	-0.1338	1.2817	-3.4991	-0.4944	13.7219	17.3900 
352.683	0.2065	-0.1519	1.1924	-3.3673	-0.8569	13.7384	17.4000 
352.704	0.2080	-0.1963	1.0732	-3.1201	-1.2634	14.0076	17.3900 
352.723	0.2173	-0.2476	1.0610	-2.9773	-1.5271	14.2822	17.4000 
352.812	0.1724	-0.2686	1.1118	-2.9883	-1.5875	14.3097	17.4100 
352.820	0.1050	-0.2173	1.1729	-3.0432	-1.4941	14.0515	17.4100 
352.820	0.0693	-0.1255	1.1323	-3.0652	-1.3513	13.6560	17.4100 
352.820	0.0825	-0.0591	0.9961	-3.1201	-1.1700	13.2990	17.4200 
352.826	0.1108	-0.0640	0.9160	-3.2245	-1.0107	13.0463	17.4100 
352.842	0.1353	-0.0957	0.8198	-3.2739	-0.9558	12.9144	17.4100 
352.869	0.1411	-0.1284	0.7661	-3.3344	-0.9338	12.8046	17.4200 
352.891	0.0820	-0.1128	0.8633	-3.4277	-0.7526	12.4860	17.4000 
352.904	0.0679	-0.1177	0.9014	-3.4442	-0.6207	12.1454	17.4000 
352.997	0.0869	-0.1255	0.9312	-3.3893	-0.5823	11.9366	17.4100 
353.008	0.1099	-0.1016	0.9341	-3.3124	-0.5548	11.7993	17.4100 
353.008	0.1401	-0.0435	0.9277	-3.2574	-0.4944	11.6785	17.4100 
353.008	0.1528	-0.0264	0.9561	-3.2629	-0.3900	11.5796	17.4200 
353.008	0.1519	-0.0059	1.0122	-3.3234	-0.2582	11.4807	17.4000 
353.031	0.1436	-0.0054	1.0142	-3.3838	-0.1154	11.3928	17.4100 
353.042	0.1372	-0.0249	1.0483	-3.4552	0.0439	11.3269	17.3900 
353.061	0.1343	-0.0391	1.0518	-3.5156	0.1978	11.3049	17.3800 
353.081	0.1211	-0.0293	1.0601	-3.5156	0.3790	11.2994	17.4000 
353.103	0.1143	-0.0249	1.0698	-3.4827	0.5823	11.3324	17.4000 
353.122	0.1079	0.0371	1.0796	-3.3728	0.8020	11.3763	17.4100 
353.141	0.1162	0.0645	1.0771	-3.2080	1.0107	11.4587	17.4000 
353.232	0.1382	0.1074	1.0542	-3.0048	1.2030	11.5576	17.4100 
353.239	0.1401	0.0981	1.0396	-2.8015	1.3733	11.6565	17.4000 
353.239	0.1025	0.0024	1.0200	-2.6202	1.5051	11.7224	17.4200 
353.239	0.0205	-0.0854	1.1450	-2.4939	1.6589	11.7279	17.3900 
353.245	-0.0249	0.0015	1.2754	-2.3126	1.7743	11.7389	17.4000 
353.266	-0.0210	0.0327	1.1748	-1.9830	1.7963	11.9037	17.4000 
353.288	-0.0522	0.0107	1.0723	-1.6699	1.8182	12.1729	17.4100 
353.308	-0.0791	-0.0581	0.9946	-1.4337	1.7853	12.4750	17.4000 
353.329	-0.1177	-0.0894	0.9629	-1.3623	1.8018	12.6343	17.4200 
353.433	-0.1499	-0.1265	0.9980	-1.4612	1.8787	12.7002	17.4100 
353.444	-0.1484	-0.1426	1.1211	-1.6699	1.9556	12.8485	17.4100 
353.444	-0.0981	-0.1250	1.1592	-1.9226	1.9556	13.1946	17.4000 
353.444	-0.0073	-0.0586	1.1514	-2.1808	1.9226	13.6230	17.4100 
353.444	0.0371	-0.0161	1.1108	-2.4170	1.8347	14.0295	17.4000 
353.444	0.0615	0.0371	0.9941	-2.6093	1.6919	14.3481	17.4100 
353.466	0.0464	0.0439	0.9199	-2.7466	1.5106	14.5953	17.4000 
353.491	0.0073	0.0054	0.8599	-2.8510	1.3074	14.8041	17.4000 
353.498	-0.0151	-0.0103	0.8545	-2.9608	1.1426	14.9744	17.3900 
353.518	-0.0205	-0.0093	0.8677	-3.0707	0.9778	15.1117	17.4000 
353.539	-0.0054	-0.0190	0.8706	-3.1860	0.8075	15.2710	17.4000 
353.614	0.0205	-0.0137	0.8862	-3.3124	0.6537	15.4303	17.3900 
353.625	0.0293	0.0059	0.9238	-3.4442	0.5219	15.5402	17.3900 
353.625	0.0288	0.0415	0.9736	-3.5706	0.4175	15.5896	17.4100 
353.625	0.0264	0.0508	0.9883	-3.6914	0.3186	15.6171	17.4100 
353.647	0.0273	0.0669	0.9907	-3.8123	0.2637	15.6281	17.4100 
353.666	0.0376	0.0708	0.9810	-3.9551	0.2307	15.6226	17.4000 
353.677	0.0322	0.0767	0.9590	-4.0924	0.1978	15.5347	17.4000 
353.697	0.0186	0.0488	1.0083	-4.2792	0.1758	15.3314	17.4000 
353.717	-0.0044	0.0254	1.0781	-4.4934	0.1208	15.0238	17.4000 
353.737	-0.0225	0.0264	1.1357	-4.6417	-0.0165	14.6997	17.4000 
353.757	-0.0317	0.0493	1.1196	-4.6857	-0.1978	14.4086	17.4100 
353.847	-0.0098	0.0894	1.1182	-4.6857	-0.4010	14.1833	17.3900 
353.852	0.0244	0.0820	1.1343	-4.7021	-0.6812	14.0735	17.3900 
353.852	0.1279	-0.0210	1.2813	-4.8669	-1.0492	13.9636	17.4000 
353.852	0.1553	-0.1040	1.2339	-5.0702	-1.5656	13.8483	17.4000 
353.859	0.1880	-0.1392	1.3428	-5.3558	-1.8787	13.5626	17.3900 
353.882	0.2202	-0.1831	1.2856	-5.4492	-2.3126	13.4967	17.3900 
353.902	0.2583	-0.0801	1.0947	-5.2679	-2.9004	13.6780	17.3900 
353.922	0.2935	-0.1460	0.9609	-5.0812	-3.5376	14.1064	17.3900 
353.936	0.3193	-0.3589	0.8843	-5.1636	-3.9935	14.4965	17.4000 
354.032	0.2231	-0.4150	1.0137	-5.4602	-4.0924	14.4855	17.3900 
354.042	0.0737	-0.3506	1.1362	-5.7294	-3.8892	13.9966	17.3900 
354.042	0.0425	-0.2886	1.1226	-5.9052	-3.6145	13.5242	17.4000 
354.043	0.1143	-0.2100	0.9702	-6.0535	-3.3124	13.3154	17.3900 
354.043	0.1558	-0.1484	0.8926	-6.1853	-2.9663	13.2056	17.4000 
354.063	0.1875	-0.1172	0.8032	-6.2787	-2.6312	13.1396	17.3900 
354.074	0.1650	-0.1152	0.8018	-6.3501	-2.2742	12.9529	17.3800 
354.095	0.1279	-0.1377	0.8838	-6.4105	-1.8896	12.6178	17.3800 
354.114	0.1265	-0.1753	0.9199	-6.4490	-1.5710	12.3047	17.3900 
354.134	0.1362	-0.1465	0.9546	-6.4105	-1.3074	12.0245	17.3700 
354.213	0.1401	-0.1240	0.9678	-6.2952	-1.0931	11.8378	17.3800 
354.226	0.1431	-0.1021	0.9888	-6.1469	-0.9119	11.7334	17.3600 
354.226	0.1421	-0.0698	0.9839	-5.9821	-0.7416	11.6620	17.3800 
354.226	0.1592	-0.0254	0.9673	-5.8063	-0.5933	11.6235	17.3900 
354.235	0.1611	-0.0195	0.9858	-5.6525	-0.4724	11.6235	17.3600 
354.254	0.1514	-0.0625	1.0137	-5.5591	-0.3571	11.6620	17.3600 
354.274	0.1372	-0.0835	1.0142	-5.4822	-0.2362	11.7114	17.3600 
354.294	0.1196	-0.0845	1.0347	-5.3943	-0.1099	11.7883	17.3700 
354.314	0.1211	-0.0454	1.0615	-5.2570	0.0055	11.8927	17.3600 
354.332	0.1587	0.0410	1.0635	-5.0262	0.0824	12.0740	17.3600 
354.353	0.1860	0.0815	1.0615	-4.7461	0.1373	12.2827	17.3600 
354.453	0.2036	0.0767	1.0767	-4.4659	0.2032	12.4530	17.3700 
354.458	0.1846	0.0391	1.0889	-4.2188	0.2856	12.5739	17.3600 
354.458	0.0811	-0.0898	1.1670	-4.0265	0.4340	12.6123	17.3600 
354.458	0.0283	-0.1304	1.2856	-3.8672	0.6482	12.5848	17.3600 
354.458	0.0200	0.0542	1.3027	-3.5925	0.8679	12.5958	17.3700 
354.472	0.0313	0.0996	1.2163	-3.2245	1.0822	12.7386	17.3900 
354.493	0.0005	0.0479	0.9917	-2.9004	1.2799	12.9034	17.3700 
354.512	-0.0527	-0.0659	0.9165	-2.7081	1.4612	12.9803	17.3700 
354.532	-0.1230	-0.1787	0.9419	-2.7026	1.6040	12.8815	17.3700 
354.551	-0.1699	-0.2300	1.0103	-2.8015	1.7139	12.7112	17.3700 
354.638	-0.1929	-0.1279	1.1211	-3.0157	1.9336	12.4750	17.3600 
354.650	-0.0952	-0.1235	1.0679	-3.2520	2.0654	12.5244	17.3700 
354.650	-0.0435	-0.0879	1.1147	-3.5541	2.1478	12.6947	17.3800 
354.650	0.0264	-0.0708	1.0522	-3.7848	2.0544	12.9144	17.3800 
354.656	0.0396	-0.0596	0.9736	-3.9551	1.8787	13.0792	17.3600 
354.672	0.0283	-0.0483	0.8794	-4.0759	1.6534	13.2001	17.3800 
354.693	0.0054	-0.0522	0.8643	-4.1638	1.4227	13.2605	17.3900 
354.714	-0.0298	-0.0601	0.8926	-4.2462	1.2305	13.2495	17.3800 
354.740	-0.0244	-0.0747	0.9092	-4.3121	1.0382	13.2385	17.3800 
354.819	0.0005	-0.0562	0.9321	-4.3616	0.8624	13.2275	17.3600 
354.829	0.0239	-0.0151	0.9414	-4.3835	0.7196	13.1946	17.3600 
354.829	0.0439	0.0361	0.9731	-4.3781	0.6152	13.1177	17.3800 
354.829	0.0391	0.0396	0.9780	-4.3671	0.5109	13.0078	17.3600 
354.836	0.0225	0.0317	1.0029	-4.3781	0.4395	12.8540	17.3800 
354.852	0.0195	0.0313	0.9917	-4.3890	0.3680	12.6947	17.3700 
354.873	0.0166	0.0010	0.9585	-4.3890	0.2966	12.5574	17.3900 
354.896	0.0029	-0.0146	0.9463	-4.4000	0.2637	12.3981	17.3600 
354.917	-0.0044	0.0186	1.0078	-4.3945	0.2856	12.1729	17.3600 
354.937	0.0083	0.0332	1.0581	-4.3671	0.2966	11.9641	17.3600 
354.959	0.0322	0.0693	1.0806	-4.2902	0.2582	11.7224	17.3600 
354.969	0.0342	0.0801	1.0796	-4.1858	0.2032	11.4532	17.3700 
355.063	-0.0015	0.0732	1.0747	-4.0540	0.1593	11.1621	17.3600 
355.069	-0.0313	0.0972	1.0635	-3.9111	0.1428	10.8270	17.3600 
355.069	-0.0132	0.0898	1.0620	-3.7793	0.0934	10.4755	17.3700 
355.069	0.0459	0.0537	1.1802	-3.7463	-0.0275	10.1074	17.3600 
355.069	0.1563	-0.0503	1.2339	-3.7408	-0.3516	9.7998	17.3500 
355.093	0.1563	-0.1040	1.3403	-3.7573	-0.6921	9.4592	17.3600 
355.117	0.1836	-0.1431	1.2500	-3.6859	-1.0876	9.2175	17.3600 
355.138	0.2007	-0.1367	1.1157	-3.4332	-1.5546	9.2230	17.3700 
355.148	0.2109	-0.1855	1.0352	-3.2245	-1.9556	9.4153	17.3600 
355.246	0.2261	-0.2656	0.9990	-3.1750	-2.2028	9.5801	17.3600 
355.252	0.1523	-0.2749	1.1104	-3.3014	-2.2028	9.4098	17.3600 
355.252	0.0898	-0.2183	1.1387	-3.4332	-2.0544	8.9594	17.3600 
355.252	0.0493	-0.1367	1.0806	-3.5211	-1.8402	8.4869	17.3600 
355.252	0.0630	-0.1055	1.0171	-3.5815	-1.6479	8.1628	17.3600 
355.268	0.1069	-0.1045	0.8950	-3.6420	-1.5051	8.0420	17.3600 
355.289	0.1382	-0.1123	0.8335	-3.6859	-1.3898	8.0090	17.3600 
355.307	0.1401	-0.1045	0.8232	-3.7189	-1.2634	7.9047	17.3500 
355.327	0.1094	-0.0776	0.8916	-3.7354	-1.0712	7.6300	17.3600 
355.346	0.0967	-0.1074	0.9448	-3.6694	-0.9613	7.3608	17.3700 
355.366	0.1079	-0.1230	0.9492	-3.5486	-0.9393	7.1960	17.3600 
355.387	0.1113	-0.0894	0.9370	-3.4222	-0.8954	7.1136	17.3600 
355.491	0.1226	-0.0610	0.9287	-3.3179	-0.8130	7.0752	17.3700 
355.497	0.1343	-0.0435	0.9497	-3.2410	-0.6976	7.1082	17.3600 
355.497	0.1553	0.0044	0.9937	-3.1586	-0.5988	7.2125	17.3600 
355.497	0.1563	0.0112	1.0156	-3.0872	-0.5273	7.3663	17.3600 
355.497	0.1440	0.0024	1.0234	-3.0432	-0.4285	7.5092	17.3600 
355.506	0.1382	-0.0020	1.0249	-3.0267	-0.2911	7.6355	17.3700 
355.525	0.1367	-0.0083	1.0400	-2.9938	-0.1318	7.8278	17.3600 
355.545	0.1382	0.0220	1.0479	-2.9114	0.0275	8.0640	17.3600 
355.566	0.1411	0.0674	1.0659	-2.7740	0.2032	8.3221	17.3600 
355.585	0.1484	0.0884	1.0771	-2.5983	0.3735	8.5968	17.3800 
355.682	0.1528	0.1240	1.0620	-2.3895	0.5383	8.8495	17.3600 
355.694	0.1519	0.1382	1.0562	-2.1753	0.6866	9.0692	17.3500 
355.694	0.1670	0.1167	1.0391	-1.9666	0.8075	9.2725	17.3600 
355.694	0.1362	0.0615	1.0083	-1.7743	0.9064	9.4812	17.3600 
355.694	0.0444	-0.0850	1.0566	-1.5656	0.9943	9.7614	17.3600 
355.712	-0.0088	-0.0835	1.2153	-1.3623	1.0876	10.0745	17.3600 
355.725	0.0293	0.0288	1.1719	-1.0327	1.1096	10.5469	17.3700 
355.746	0.0195	0.0332	1.1768	-0.7196	1.1426	11.0797	17.3600 
355.768	-0.0366	0.0313	1.1699	-0.4669	1.2030	11.5137	17.3600 
355.870	-0.0952	0.0513	1.1152	-0.3241	1.3513	11.7444	17.3600 
355.876	-0.1714	-0.0620	1.0288	-0.3516	1.5875	11.8268	17.3600 
355.876	-0.2080	-0.1494	1.1084	-0.5548	1.8292	11.8927	17.3300 
355.876	-0.1318	-0.1362	1.1636	-0.8514	1.9501	12.1179	17.3600 
355.876	-0.0532	-0.0840	1.1284	-1.1755	1.9556	12.4860	17.3800 
355.884	0.0337	-0.0396	1.0356	-1.5216	1.8677	12.9089	17.3500 
355.908	0.0576	-0.0269	0.9736	-1.8787	1.7139	13.2935	17.3500 
355.924	0.0117	-0.0332	0.9116	-2.2192	1.5216	13.5956	17.3600 
355.944	-0.0015	-0.0557	0.8291	-2.5433	1.2744	13.8153	17.3500 
355.966	-0.0151	-0.0703	0.8594	-2.8619	1.0822	13.9746	17.3500 
356.059	-0.0044	-0.0439	0.8765	-3.1146	0.8679	14.1559	17.3600 
356.071	0.0015	0.0142	0.9248	-3.2574	0.6647	14.3481	17.3700 
356.071	0.0278	0.0132	0.9238	-3.3014	0.4285	14.5953	17.3800 
356.071	0.0669	0.0083	0.9443	-3.3398	0.1978	14.8260	17.3600 
356.071	0.0605	0.0366	0.9585	-3.4113	0.0439	14.9249	17.3600 
356.092	0.0303	0.0264	0.9639	-3.5266	-0.0165	14.9139	17.3600 
356.102	0.0190	-0.0024	0.9644	-3.6694	-0.0604	14.9030	17.3500 
356.121	0.0088	0.0132	0.9858	-3.8177	-0.0934	14.8975	17.3400 
356.142	0.0171	0.0278	0.9678	-3.9661	-0.1263	14.8865	17.3500 
356.163	0.0308	0.0684	0.9541	-4.1034	-0.1758	14.8370	17.3500 
356.238	0.0381	0.0327	0.9937	-4.2462	-0.2472	14.7766	17.3500 
356.249	0.0430	0.0034	1.0615	-4.3781	-0.3900	14.6942	17.3500 
356.249	0.0342	0.0166	1.0879	-4.4165	-0.5658	14.5789	17.3400 
356.249	0.0146	0.0498	1.0972	-4.3341	-0.7416	14.4470	17.3300 
356.271	0.0132	0.0815	1.1016	-4.1913	-0.9174	14.3372	17.3600 
356.281	0.0454	0.1030	1.0747	-4.0485	-1.0986	14.2603	17.3300 
356.301	0.0947	0.0728	1.0928	-3.9771	-1.2689	14.1504	17.3400 
356.320	0.1558	0.0264	1.1792	-4.0210	-1.4941	14.0131	17.3600 
356.341	0.1616	-0.0747	1.2617	-4.0375	-1.8127	13.8593	17.3600 
356.360	0.1694	-0.1362	1.3462	-4.0594	-2.1259	13.6835	17.3400 
356.381	0.2373	-0.1665	1.3018	-3.9441	-2.5543	13.6725	17.3400 
356.480	0.2671	-0.1523	1.1455	-3.6420	-3.0762	13.9032	17.3400 
356.485	0.2358	-0.1660	1.0874	-3.4113	-3.3618	14.1394	17.3300 
356.485	0.2471	-0.2603	1.0405	-3.3563	-3.4717	14.3207	17.3300 
356.485	0.1538	-0.2695	1.1069	-3.4113	-3.3344	14.1888	17.3400 
356.485	0.1035	-0.2515	1.0938	-3.4937	-3.0267	13.8263	17.3400 
356.499	0.0459	-0.0962	1.0869	-3.5980	-2.5598	13.3264	17.3600 
356.520	0.0767	-0.0723	0.9966	-3.7024	-2.1533	13.0353	17.3400 
356.541	0.1226	-0.0547	0.9009	-3.8123	-1.7853	12.8540	17.3500 
356.559	0.1348	-0.0698	0.8384	-3.8947	-1.4722	12.7222	17.3500 
356.579	0.1157	-0.0903	0.8022	-3.9221	-1.1810	12.5079	17.3400 
356.680	0.0737	-0.1187	0.8340	-3.9496	-0.8514	12.1948	17.3400 
356.686	0.0420	-0.1191	0.9102	-3.9166	-0.5383	11.8542	17.3600 
356.686	0.0669	-0.1143	0.9204	-3.8287	-0.3186	11.6400	17.3500 
356.686	0.1025	-0.0615	0.9307	-3.7408	-0.1318	11.5521	17.3400 
356.686	0.1211	-0.0288	0.9512	-3.6859	0.0549	11.5247	17.3400 
356.698	0.1411	0.0000	1.0029	-3.7354	0.2637	11.4862	17.3500 
356.719	0.1475	-0.0068	1.0029	-3.8068	0.4559	11.4368	17.3500 
356.738	0.1265	-0.0171	0.9956	-3.8672	0.6097	11.3873	17.3500 
356.758	0.1035	-0.0259	1.0020	-3.9276	0.7690	11.3379	17.3600 
356.779	0.0928	-0.0264	1.0039	-3.9880	0.9393	11.3159	17.3600 
356.859	0.0977	-0.0161	1.0186	-4.0210	1.1096	11.3434	17.3500 
356.869	0.1113	-0.0068	1.0518	-4.0265	1.2524	11.4203	17.3400 
356.869	0.1211	0.0166	1.0713	-3.9990	1.3788	11.5302	17.3400 
356.869	0.1426	0.0620	1.0801	-3.9386	1.4886	11.6510	17.3400 
356.878	0.1504	0.0918	1.0776	-3.8342	1.5820	11.7773	17.3300 
356.897	0.1523	0.0845	1.0635	-3.6804	1.6315	11.9257	17.3400 
356.917	0.1431	0.0615	1.0356	-3.5046	1.6425	12.0850	17.3500 
356.937	0.0840	-0.0376	1.0254	-3.3124	1.6370	12.2882	17.3400 
356.957	0.0220	-0.1172	1.1260	-3.1531	1.6864	12.5244	17.3400 
356.978	0.0010	0.0127	1.2793	-2.9553	1.7688	12.7496	17.3500 
356.999	0.0303	0.0020	1.2188	-2.6422	1.7633	13.1122	17.3400 
357.093	-0.0259	0.0205	1.2271	-2.3621	1.7798	13.4528	17.3500 
357.100	-0.0747	-0.0278	1.1182	-2.0929	1.7743	13.7439	17.3400 
357.100	-0.1597	-0.1177	0.9893	-1.9885	1.8622	13.8153	17.3500 
357.100	-0.2246	-0.1885	1.0483	-2.0105	1.9995	13.8428	17.3300 
357.100	-0.2080	-0.2295	1.1763	-2.1478	2.0764	14.0790	17.3300 
357.125	-0.1069	-0.1538	1.1704	-2.3840	2.0654	14.5074	17.3400 
357.146	-0.0034	-0.0742	1.1191	-2.6917	2.0380	15.0293	17.3400 
357.156	0.0352	-0.0464	1.0571	-3.0157	1.9611	15.5182	17.3300 
357.176	0.0308	-0.0220	0.9595	-3.3014	1.8402	15.8752	17.3400 
357.196	0.0122	-0.0161	0.9058	-3.5596	1.6644	16.1279	17.3300 
357.283	-0.0039	-0.0796	0.8486	-3.7683	1.4282	16.3696	17.3400 
357.292	-0.0366	-0.1011	0.8691	-3.9331	1.2195	16.5454	17.3300 
357.292	-0.0337	-0.0820	0.8848	-4.0430	1.0162	16.7102	17.3300 
357.292	0.0005	-0.0435	0.8926	-4.0704	0.7965	16.8860	17.3300 
357.298	0.0317	-0.0386	0.8887	-4.0814	0.5603	17.0563	17.3300 
357.316	0.0332	-0.0322	0.9189	-4.1199	0.3955	17.1222	17.3100 
357.337	0.0151	-0.0039	0.9521	-4.1693	0.3241	17.0453	17.3300 
357.359	0.0059	-0.0020	0.9604	-4.2242	0.2692	16.9244	17.3200 
357.379	0.0122	0.0024	0.9800	-4.2792	0.2142	16.8201	17.3400 
357.476	0.0195	0.0049	0.9824	-4.3341	0.1428	16.7322	17.3300 
357.487	0.0215	0.0269	0.9829	-4.3726	0.0714	16.5948	17.3200 
357.487	0.0254	0.0332	0.9668	-4.4110	-0.0220	16.4136	17.3400 
357.487	0.0190	0.0410	0.9663	-4.4275	-0.1373	16.1829	17.3200 
357.488	0.0127	0.0298	1.0142	-4.4165	-0.2911	15.9137	17.3300 
357.493	0.0195	0.0293	1.0474	-4.3781	-0.4999	15.6500	17.3300 
357.515	0.0371	0.0674	1.0615	-4.2847	-0.7526	15.3589	17.3200 
357.533	0.0479	0.0830	1.0435	-4.1528	-1.0272	15.0732	17.3300 
357.555	0.0415	0.0918	1.0195	-3.9935	-1.3129	14.7876	17.3200 
357.576	0.0474	0.0879	1.0366	-3.8562	-1.5930	14.4965	17.3300 
357.597	0.1123	0.0303	1.1812	-3.8123	-1.8951	14.1614	17.3300 
357.618	0.1763	-0.0132	1.2686	-3.8177	-2.2852	13.8153	17.3400 
357.711	0.1860	-0.1123	1.3589	-3.8068	-2.7191	13.4363	17.3200 
357.718	0.2129	-0.1836	1.3203	-3.7189	-3.1750	13.0957	17.3300 
357.718	0.2568	-0.2305	1.2334	-3.5101	-3.7189	12.9913	17.3200 
357.718	0.2710	-0.2930	1.1182	-3.2355	-4.3066	13.2220	17.3300 
357.718	0.2676	-0.2886	1.1230	-3.0981	-4.6692	13.4143	17.3300 
357.732	0.2490	-0.2925	1.1299	-3.1311	-4.7900	13.4308	17.3300 
357.752	0.1538	-0.2373	1.2046	-3.2190	-4.6912	13.2495	17.3200 
357.772	0.1226	-0.1670	1.1040	-3.2465	-4.5483	13.0682	17.3200 
357.792	0.1206	-0.1377	0.9365	-3.3289	-4.3231	12.9694	17.3200 
357.812	0.1123	-0.1396	0.8804	-3.4607	-4.0320	12.9474	17.3200 
357.896	0.1235	-0.1948	0.8076	-3.5925	-3.7628	13.0573	17.3200 
357.908	0.1211	-0.1934	0.8179	-3.6914	-3.4772	13.2001	17.3300 
357.909	0.1113	-0.1299	0.8936	-3.7079	-3.1915	13.3044	17.3400 
357.909	0.1309	-0.1323	0.9185	-3.6365	-2.9718	13.4583	17.3200 
357.914	0.1582	-0.1157	0.9424	-3.5101	-2.8400	13.7164	17.3300 
357.931	0.1724	-0.0889	0.9341	-3.3563	-2.7301	13.9966	17.3200 
357.951	0.1689	-0.0742	0.9463	-3.2574	-2.5873	14.2877	17.3200 
357.971	0.1631	-0.0796	0.9854	-3.2190	-2.4280	14.5789	17.3300 
357.991	0.1685	-0.0752	1.0254	-3.2245	-2.2797	14.9139	17.3300 
358.076	0.1704	-0.0498	1.0190	-3.2355	-2.1478	15.2545	17.3400 
358.084	0.1646	-0.0391	1.0005	-3.2300	-2.0270	15.6171	17.3300 
358.084	0.1626	-0.0474	0.9868	-3.2135	-1.9281	16.0181	17.3300 
358.084	0.1592	-0.0405	0.9932	-3.1860	-1.8127	16.4246	17.3200 
358.090	0.1558	-0.0342	1.0029	-3.1421	-1.6974	16.8365	17.3300 
358.110	0.1621	-0.0303	1.0215	-3.0652	-1.5930	17.2650	17.3300 
358.131	0.1772	-0.0117	1.0371	-2.9498	-1.5216	17.7319	17.3200 
358.151	0.1890	0.0073	1.0288	-2.8125	-1.4722	18.2153	17.3300 
358.173	0.2061	0.0283	1.0132	-2.6807	-1.4008	18.6713	17.3300 
358.189	0.2017	0.0391	1.0234	-2.5433	-1.3074	19.0997	17.3400 
358.212	0.1885	0.0439	1.0278	-2.3730	-1.2415	19.5282	17.3300 
358.237	0.1807	0.0454	1.0161	-2.1753	-1.2195	19.9786	17.3300 
358.326	0.1860	0.0591	0.9868	-1.9501	-1.2415	20.4675	17.3200 
358.334	0.2031	0.0591	0.9673	-1.7303	-1.2964	20.9894	17.3200 
358.335	0.2041	0.0669	0.9565	-1.5381	-1.3293	21.5057	17.3200 
358.335	0.1855	0.0410	0.9360	-1.3678	-1.3348	22.0386	17.3200 
358.335	0.1060	-0.0938	1.0117	-1.2524	-1.2799	22.6154	17.3200 
358.357	0.0825	-0.0952	1.2334	-1.1810	-1.1920	23.1812	17.3200 
358.368	0.0889	0.0269	1.3271	-0.9943	-1.2415	23.8293	17.3300 
358.388	0.0859	0.0356	1.3564	-0.8240	-1.2854	24.4830	17.3300 
358.408	0.0107	0.0400	1.1973	-0.6372	-1.2744	25.1093	17.3300 
358.429	-0.0986	-0.0308	1.1099	-0.5054	-1.1481	25.6146	17.3300 
358.513	-0.1870	-0.1631	1.0679	-0.4944	-0.9503	26.0321	17.3400 
358.521	-0.1929	-0.2153	1.0874	-0.6042	-0.8020	26.4771	17.3200 
358.521	-0.1348	-0.1631	1.1318	-0.7361	-0.7581	27.0593	17.3200 
358.521	-0.0674	-0.1030	1.1274	-0.8844	-0.7471	27.7185	17.3000 
358.527	0.0112	-0.0269	1.0723	-1.0547	-0.6976	28.3612	17.3300 
358.547	0.0313	-0.0244	1.0215	-1.2195	-0.5988	28.9105	17.3300 
358.567	0.0396	-0.0283	0.9668	-1.3788	-0.4779	29.3445	17.3200 
358.589	0.0161	-0.0229	0.9185	-1.5051	-0.3845	29.6356	17.3200 
358.610	-0.0347	-0.0425	0.9570	-1.6425	-0.2417	29.8004	17.3200 
358.705	-0.0586	-0.0654	1.0029	-1.7963	-0.0494	29.8828	17.3100 
358.717	-0.0669	-0.0693	1.0229	-1.9501	0.1099	29.9213	17.3200 
358.717	-0.0449	-0.0605	1.0098	-2.1259	0.2856	29.9652	17.3200 
358.717	-0.0400	-0.0347	0.9839	-2.2961	0.4889	29.9817	17.3200 
358.717	-0.0483	-0.0444	0.9604	-2.4829	0.7086	29.8938	17.3300 
358.731	-0.0776	-0.0840	0.9639	-2.6642	0.9393	29.7070	17.3500 
358.746	-0.0918	-0.0791	0.9751	-2.7905	1.1536	29.4324	17.3300 
358.766	-0.0732	-0.0674	0.9917	-2.8894	1.3184	29.0808	17.3300 
358.786	-0.0640	-0.0396	1.0044	-2.9553	1.4612	28.6798	17.3100 
358.808	-0.0522	-0.0117	0.9736	-2.9443	1.5875	28.1964	17.3200 
358.901	-0.0425	-0.0327	0.9619	-2.9059	1.6919	27.6636	17.3200 
358.913	-0.0249	-0.0610	1.0010	-2.8345	1.7139	27.0813	17.3200 
358.913	-0.0366	-0.0991	1.0537	-2.7301	1.6699	26.4661	17.3200 
358.913	0.0137	-0.0908	1.2271	-2.6312	1.5875	25.8289	17.3300 
358.913	0.0630	-0.0117	1.1973	-2.4774	1.4117	25.2521	17.3200 
358.930	0.0889	0.0522	1.0645	-2.3016	1.2250	24.7467	17.3000 
358.954	0.1050	-0.0083	0.9980	-2.2083	1.0437	24.3073	17.3200 
358.965	0.1011	-0.0596	0.9702	-2.1973	0.8569	23.9502	17.3200 
358.984	0.0688	-0.0737	0.9678	-2.1973	0.7361	23.5602	17.2900 
359.004	0.0454	-0.0479	0.9927	-2.1753	0.7141	23.1042	17.3100 
359.024	0.0557	-0.0649	1.0430	-2.1478	0.6812	22.7032	17.3100 
359.044	0.0659	-0.0669	1.0718	-2.0929	0.6372	22.3462	17.3000 
359.168	0.0952	-0.0244	1.0703	-2.0160	0.6042	22.0001	17.3000 
359.174	0.1094	0.0010	1.0527	-1.9556	0.5878	21.6486	17.2900 
359.174	0.1191	0.0142	1.0264	-1.9666	0.5988	21.2750	17.3100 
359.174	0.1162	0.0034	1.0063	-2.0380	0.6262	20.8740	17.3100 
359.174	0.0898	-0.0337	1.0103	-2.1753	0.6592	20.4730	17.2900 
359.174	0.0698	-0.0557	1.0107	-2.3456	0.6866	20.1160	17.2900 
359.183	0.0781	-0.0610	1.0083	-2.5269	0.7196	19.7974	17.3000 
359.206	0.0830	-0.0576	1.0249	-2.7026	0.7581	19.5117	17.3000 
359.293	0.0830	-0.0508	1.0586	-2.8564	0.7855	19.2261	17.2900 
359.299	0.0874	-0.0552	1.0620	-2.9773	0.7965	18.9404	17.3000 
359.299	0.0806	-0.0493	1.0435	-3.0597	0.7855	18.6548	17.3000 
359.299	0.0801	-0.0439	1.0229	-3.1311	0.7800	18.3801	17.3000 
359.305	0.0845	-0.0391	1.0088	-3.2135	0.7745	18.1110	17.3000 
359.324	0.0874	-0.0439	1.0127	-3.3179	0.7635	17.8748	17.2900 
359.346	0.0850	-0.0537	1.0229	-3.4332	0.7581	17.6550	17.2900 
359.365	0.0903	-0.0718	1.0400	-3.5541	0.7526	17.4518	17.2900 
359.388	0.0811	-0.0649	1.0381	-3.6475	0.7361	17.2650	17.2800 
359.401	0.0776	-0.0522	1.0371	-3.6914	0.7086	17.1002	17.2800 
359.422	0.0815	-0.0537	1.0352	-3.7244	0.6592	16.9629	17.3000 
359.441	0.0903	-0.0454	1.0225	-3.7408	0.5988	16.8365	17.3000 
359.526	0.0923	-0.0396	1.0229	-3.7628	0.5438	16.7102	17.3000 
359.532	0.0869	-0.0425	1.0278	-3.8013	0.4999	16.5839	17.2900 
359.532	0.0854	-0.0474	1.0430	-3.8397	0.4559	16.4960	17.3000 
359.532	0.0933	-0.0454	1.0498	-3.8727	0.3955	16.4465	17.2700 
359.540	0.0981	-0.0298	1.0435	-3.8782	0.3461	16.4191	17.2900 
359.561	0.0967	-0.0254	1.0288	-3.8672	0.3021	16.3861	17.3000 
359.582	0.0879	-0.0420	1.0332	-3.8452	0.2582	16.3531	17.2900 
359.601	0.0815	-0.0366	1.0371	-3.8013	0.2142	16.3312	17.2900 
359.621	0.0859	-0.0288	1.0439	-3.7573	0.1703	16.3257	17.2900 
359.707	0.0918	-0.0283	1.0439	-3.7134	0.1318	16.3531	17.2900 
359.714	0.0957	-0.0273	1.0415	-3.6749	0.0989	16.4026	17.2900 
359.714	0.0928	-0.0303	1.0381	-3.6310	0.0769	16.4520	17.2800 
359.714	0.0776	-0.0264	1.0303	-3.5760	0.0604	16.4905	17.2900 
359.721	0.0718	-0.0254	1.0293	-3.5156	0.0439	16.5234	17.2900 
359.739	0.0747	-0.0107	1.0283	-3.4442	0.0220	16.5729	17.3000 
359.761	0.0806	-0.0166	1.0269	-3.3783	0.0000	16.6333	17.3100 
359.783	0.0767	-0.0229	1.0322	-3.3344	-0.0165	16.6937	17.3000 
359.803	0.0801	-0.0146	1.0415	-3.3014	-0.0330	16.7487	17.3000 
359.823	0.0747	-0.0190	1.0425	-3.2629	-0.0659	16.8146	17.2900 
359.845	0.0742	-0.0171	1.0371	-3.2245	-0.0879	16.8970	17.2800 
359.866	0.0762	-0.0229	1.0313	-3.1915	-0.0989	16.9794	17.2800 
359.942	0.0815	-0.0166	1.0215	-3.1696	-0.1099	17.0618	17.2900 
359.953	0.0806	-0.0146	1.0317	-3.1531	-0.1154	17.1552	17.2900 
359.953	0.0679	-0.0132	1.0425	-3.1256	-0.1208	17.2650	17.2900 
359.953	0.0698	-0.0229	1.0430	-3.0981	-0.1263	17.3914	17.3000 
359.958	0.0737	-0.0215	1.0420	-3.0817	-0.1318	17.5287	17.2900 
359.978	0.0811	-0.0137	1.0361	-3.0652	-0.1373	17.6495	17.3000 
359.999	0.0815	-0.0010	1.0396	-3.0377	-0.1373	17.7594	17.2700 
360.018	0.0742	-0.0024	1.0381	-3.0267	-0.1263	17.8802	17.2700 
360.038	0.0649	-0.0059	1.0361	-3.0157	-0.0934	17.9956	17.2900 
360.121	0.0679	-0.0098	1.0337	-3.0157	-0.0549	18.1110	17.3000 
360.132	0.0674	-0.0112	1.0313	-3.0212	-0.0110	18.2208	17.2900 
360.132	0.0708	-0.0200	1.0303	-3.0267	0.0165	18.3307	17.2900 
360.132	0.0713	-0.0259	1.0293	-3.0322	0.0385	18.4406	17.3000 
360.139	0.0679	-0.0215	1.0322	-3.0212	0.0549	18.5449	17.3000 
360.157	0.0620	-0.0190	1.0347	-2.9938	0.0659	18.6713	17.2800 
360.176	0.0669	-0.0190	1.0337	-2.9608	0.0769	18.8086	17.2900 
360.201	0.0771	-0.0083	1.0342	-2.9279	0.0879	18.9569	17.2900 
360.219	0.0786	0.0015	1.0313	-2.8949	0.1044	19.0942	17.2900 
360.310	0.0723	-0.0044	1.0347	-2.8674	0.1263	19.2261	17.3000 
360.325	0.0649	-0.0151	1.0322	-2.8455	0.1483	19.3359	17.3000 
360.325	0.0576	-0.0190	1.0278	-2.8180	0.1758	19.4293	17.3000 
360.325	0.0562	-0.0146	1.0244	-2.7795	0.1868	19.5282	17.3000 
360.325	0.0679	-0.0171	1.0435	-2.7411	0.1813	19.6545	17.3100 
360.343	0.0684	-0.0054	1.0444	-2.6971	0.1703	19.7864	17.3000 
360.364	0.0669	0.0049	1.0449	-2.6532	0.1593	19.9127	17.3000 
360.385	0.0649	0.0107	1.0337	-2.6202	0.1538	20.0226	17.3000 
360.396	0.0698	-0.0015	1.0220	-2.5983	0.1483	20.1215	17.2900 
360.415	0.0718	-0.0078	1.0200	-2.5818	0.1483	20.2148	17.3100 
360.435	0.0659	-0.0078	1.0327	-2.5653	0.1428	20.3027	17.3000 
360.455	0.0625	-0.0073	1.0376	-2.5378	0.1428	20.3796	17.3100 
360.560	0.0654	-0.0039	1.0420	-2.5159	0.1318	20.4675	17.3000 
360.566	0.0737	-0.0029	1.0332	-2.4884	0.1154	20.5499	17.3100 
360.566	0.0757	0.0010	1.0225	-2.4664	0.0879	20.6268	17.3000 
360.566	0.0737	-0.0034	1.0259	-2.4500	0.0659	20.6927	17.3100 
360.566	0.0693	-0.0132	1.0313	-2.4390	0.0439	20.7642	17.3000 
360.574	0.0713	-0.0171	1.0361	-2.4335	0.0165	20.8356	17.3000 
360.594	0.0752	-0.0137	1.0400	-2.4225	-0.0055	20.9180	17.3000 
360.614	0.0757	-0.0098	1.0391	-2.3950	-0.0220	21.0059	17.3100 
360.637	0.0767	0.0000	1.0288	-2.3621	-0.0385	21.0938	17.3100 
360.654	0.0811	0.0024	1.0254	-2.3236	-0.0659	21.1816	17.3100 
360.736	0.0825	0.0029	1.0347	-2.2961	-0.0934	21.2695	17.3000 
360.748	0.0801	0.0015	1.0356	-2.2797	-0.1154	21.3409	17.3100 
360.748	0.0781	-0.0020	1.0391	-2.2687	-0.1263	21.4014	17.3100 
360.748	0.0732	-0.0127	1.0405	-2.2687	-0.1373	21.4618	17.3100 
360.753	0.0747	-0.0117	1.0361	-2.2632	-0.1428	21.5277	17.3200 
360.773	0.0845	-0.0063	1.0244	-2.2522	-0.1648	21.5936	17.3100 
360.793	0.0864	-0.0073	1.0313	-2.2412	-0.1813	21.6541	17.3300 
360.813	0.0879	-0.0112	1.0410	-2.2302	-0.1868	21.6925	17.3100 
360.832	0.0859	-0.0063	1.0396	-2.2137	-0.1978	21.7365	17.3200 
360.853	0.0786	-0.0063	1.0400	-2.1863	-0.1978	21.7749	17.3000 
360.874	0.0771	-0.0122	1.0332	-2.1698	-0.2032	21.8188	17.3300 
360.977	0.0830	-0.0073	1.0308	-2.1643	-0.1978	21.8628	17.3100 
360.985	0.0830	-0.0073	1.0317	-2.1588	-0.1868	21.8958	17.3100 
360.985	0.0825	-0.0073	1.0278	-2.1588	-0.1758	21.9342	17.3100 
360.985	0.0815	-0.0103	1.0278	-2.1588	-0.1648	21.9781	17.3200 
360.985	0.0815	-0.0137	1.0303	-2.1588	-0.1593	22.0221	17.3200 
360.992	0.0806	-0.0161	1.0342	-2.1533	-0.1483	22.0605	17.3300 
361.011	0.0781	-0.0112	1.0381	-2.1423	-0.1428	22.1045	17.3300 
361.033	0.0806	-0.0078	1.0386	-2.1259	-0.1373	22.1484	17.3200 
361.053	0.0806	0.0015	1.0317	-2.1039	-0.1263	22.1814	17.3200 
361.075	0.0815	-0.0029	1.0264	-2.0874	-0.1208	22.2198	17.3200 
361.159	0.0771	-0.0034	1.0322	-2.0819	-0.1208	22.2583	17.3300 
361.170	0.0811	-0.0073	1.0327	-2.0819	-0.1263	22.3077	17.3100 
361.170	0.0869	-0.0088	1.0391	-2.0874	-0.1263	22.3682	17.3100 
361.170	0.0835	-0.0059	1.0352	-2.0819	-0.1318	22.4231	17.3200 
361.176	0.0845	-0.0088	1.0313	-2.0764	-0.1373	22.4945	17.3200 
361.192	0.0845	-0.0088	1.0317	-2.0654	-0.1483	22.5714	17.3200 
361.213	0.0820	-0.0063	1.0327	-2.0544	-0.1593	22.6428	17.3300 
361.236	0.0806	-0.0073	1.0347	-2.0435	-0.1648	22.7197	17.3300 
361.255	0.0854	-0.0039	1.0356	-2.0270	-0.1703	22.8021	17.3200 
361.343	0.0850	0.0000	1.0342	-2.0215	-0.1703	22.8900	17.3300 
361.354	0.0825	-0.0063	1.0313	-2.0215	-0.1648	22.9614	17.3300 
361.354	0.0781	-0.0127	1.0308	-2.0270	-0.1538	23.0328	17.3200 
361.354	0.0742	-0.0098	1.0288	-2.0270	-0.1538	23.0988	17.3400 
361.355	0.0767	-0.0054	1.0337	-2.0270	-0.1538	23.1812	17.3500 
361.376	0.0874	-0.0034	1.0376	-2.0160	-0.1593	23.2690	17.3400 
361.397	0.0854	0.0029	1.0313	-2.0105	-0.1648	23.3514	17.3500 
361.418	0.0825	-0.0029	1.0410	-2.0050	-0.1703	23.4174	17.3300 
361.431	0.0801	-0.0127	1.0317	-2.0105	-0.1813	23.4888	17.3400 
361.449	0.0786	-0.0093	1.0332	-2.0160	-0.1868	23.5492	17.3400 
361.469	0.0840	-0.0156	1.0337	-2.0380	-0.1923	23.6206	17.3600 
361.488	0.0850	-0.0186	1.0313	-2.0490	-0.2032	23.6920	17.3400 
361.586	0.0850	-0.0181	1.0327	-2.0544	-0.2087	23.7634	17.3300