StartTime: 2018-11-17 10:37:23.800
Time(s)	ax(g)	ay(g)	az(g)	AngleX(deg)	AngleY(deg)	AngleZ(deg)	T(Â°) 
115.898	-0.0010	0.2090	1.0093	9.8273	3.0707	-2.8839	21.4400 
115.898	-0.0034	0.2134	1.0068	9.8273	3.0762	-2.9114	21.4200 
115.918	-0.0015	0.2095	1.0112	9.8273	3.0817	-2.9333	21.4200 
115.928	-0.0098	0.2070	1.0063	9.8273	3.0927	-2.9663	21.4200 
115.934	-0.0137	0.2158	1.0083	9.8438	3.1091	-3.0048	21.4100 
115.953	-0.0176	0.2114	1.0132	9.8547	3.1256	-3.0432	21.4200 
115.973	-0.0200	0.2134	1.0171	9.8602	3.1366	-3.1036	21.4200 
116.083	-0.0239	0.2129	1.0107	9.8657	3.1476	-3.1805	21.4100 
116.093	-0.0244	0.2021	1.0039	9.8657	3.1531	-3.2520	21.4200 
116.093	-0.0229	0.1992	1.0029	9.8877	3.1476	-3.3179	21.4300 
116.093	-0.0190	0.2104	0.9990	9.9426	3.1256	-3.3673	21.4200 
116.093	-0.0195	0.2163	0.9990	10.0085	3.1036	-3.4058	21.4300 
116.099	-0.0220	0.2329	1.0103	10.0800	3.0981	-3.4497	21.4400 
116.118	-0.0171	0.2393	1.0181	10.1404	3.0981	-3.4882	21.4300 
116.140	-0.0146	0.2671	0.9990	10.1953	3.1036	-3.5321	21.4400 
116.242	-0.0122	0.2744	0.9893	10.2283	3.1201	-3.5815	21.4400 
116.255	-0.0200	0.2734	0.9858	10.2283	3.1366	-3.6584	21.4200 
116.255	-0.0249	0.2563	0.9917	10.1953	3.1750	-3.7463	21.4300 
116.255	-0.0439	0.2300	1.0015	10.1514	3.2245	-3.8397	21.4300 
116.256	-0.0430	0.2324	1.0083	10.1294	3.2684	-3.9276	21.4200 
116.264	-0.0220	0.2417	1.0068	10.1184	3.2849	-3.9880	21.4200 
116.278	-0.0142	0.2437	1.0024	10.1129	3.3014	-4.0430	21.4100 
116.301	-0.0156	0.2354	1.0024	10.0964	3.3289	-4.0979	21.4300 
116.319	-0.0234	0.2261	1.0029	10.0690	3.3673	-4.1473	21.4300 
116.332	-0.0181	0.2280	0.9839	10.0360	3.4003	-4.1803	21.4300 
116.350	0.0000	0.2397	0.9648	10.0031	3.4167	-4.1913	21.4400 
116.449	0.0327	0.2310	0.9502	9.9371	3.3893	-4.1858	21.4500 
116.464	0.0454	0.2178	0.9478	9.8438	3.3563	-4.1803	21.4300 
116.464	0.0630	0.2021	0.9785	9.7119	3.3124	-4.1638	21.4200 
116.464	0.0669	0.1982	1.0361	9.5581	3.2574	-4.1364	21.4400 
116.464	0.0615	0.2231	1.0830	9.4098	3.1915	-4.1089	21.4200 
116.471	0.0703	0.2388	1.0923	9.2725	3.1311	-4.0814	21.4400 
116.490	0.0708	0.2632	1.0439	9.1626	3.0707	-4.0649	21.4300 
116.514	0.0786	0.2480	1.0161	9.0637	3.0048	-4.0485	21.4300 
116.533	0.0742	0.2256	1.0088	8.9703	2.9498	-4.0155	21.4200 
116.552	0.0605	0.2231	1.0332	8.8770	2.9114	-3.9716	21.4300 
116.653	0.0532	0.2466	1.0459	8.8055	2.8839	-3.9111	21.4300 
116.665	0.0596	0.2656	1.0229	8.7506	2.8674	-3.8342	21.4300 
116.666	0.0684	0.2642	0.9780	8.7122	2.8619	-3.7463	21.4200 
116.666	0.0664	0.2563	0.9658	8.6682	2.8729	-3.6584	21.4300 
116.666	0.0757	0.2368	0.9517	8.6133	2.8784	-3.5651	21.4100 
116.672	0.0703	0.2358	0.9683	8.5254	2.8784	-3.4552	21.4200 
116.689	0.0762	0.2354	0.9873	8.4320	2.8510	-3.3398	21.4200 
116.710	0.0786	0.2280	0.9902	8.3221	2.8070	-3.2300	21.4100 
116.732	0.0762	0.2085	0.9961	8.1903	2.7576	-3.1366	21.4200 
116.755	0.0708	0.2021	0.9946	8.0640	2.7026	-3.0432	21.4100 
116.867	0.0693	0.1938	1.0088	7.9541	2.6532	-2.9443	21.4200 
116.881	0.0723	0.2007	1.0083	7.8662	2.6038	-2.8290	21.4000 
116.882	0.0801	0.2065	1.0225	7.8058	2.5433	-2.6971	21.4100 
116.882	0.0903	0.2080	1.0444	7.7399	2.4774	-2.5598	21.4100 
116.882	0.1055	0.2095	1.0483	7.6630	2.4060	-2.4115	21.4100 
116.882	0.1123	0.2070	1.0254	7.5916	2.3456	-2.2522	21.4100 
116.889	0.0986	0.1694	1.0342	7.5092	2.3016	-2.0709	21.4200 
116.908	0.0928	0.1479	1.0518	7.4323	2.2577	-1.8622	21.4300 
116.928	0.0972	0.1533	1.0464	7.4048	2.1973	-1.6150	21.4200 
116.948	0.0996	0.1797	1.0249	7.4487	2.1039	-1.3293	21.4200 
116.970	0.1069	0.1958	1.0215	7.5421	1.9830	-1.0327	21.4100 
117.084	0.1250	0.2080	1.0117	7.6630	1.8347	-0.7361	21.4300 
117.100	0.1309	0.2021	0.9976	7.7948	1.6809	-0.4559	21.4100 
117.100	0.1289	0.1875	0.9634	7.9486	1.5326	-0.1648	21.4000 
117.100	0.1162	0.1587	0.9507	8.1354	1.3843	0.1593	21.4100 
117.100	0.0747	0.1455	1.0674	8.3551	1.2305	0.5219	21.4100 
117.100	0.0767	0.2227	1.0679	8.6902	1.0272	0.9448	21.4000 
117.108	0.0947	0.2510	1.1045	8.9868	0.8185	1.3239	21.4000 
117.127	0.0903	0.2764	1.1455	9.2505	0.6262	1.6260	21.4100 
117.148	0.0488	0.2969	1.0610	9.4757	0.4834	1.8347	21.3900 
117.170	0.0186	0.2407	0.9790	9.5911	0.3790	1.9336	21.4100 
117.307	-0.0234	0.1143	0.9526	9.6460	0.2527	1.9775	21.4000 
117.314	-0.0371	0.0610	0.9922	9.6899	0.0549	2.0215	21.3900 
117.314	-0.0400	0.1406	0.9897	9.7998	-0.1813	2.1259	21.4000 
117.314	-0.0088	0.1787	0.9780	9.9261	-0.4120	2.3181	21.3700 
117.314	0.0117	0.2090	1.0410	10.0250	-0.5878	2.5488	21.3900 
117.314	0.0249	0.2266	1.0918	10.0690	-0.6812	2.7246	21.3900 
117.314	0.0420	0.2407	1.1162	10.0360	-0.6921	2.7740	21.3800 
117.326	0.0435	0.2349	1.0991	9.9261	-0.6647	2.6971	21.3800 
117.346	0.0288	0.1987	1.0366	9.7504	-0.6207	2.5323	21.3700 
117.463	0.0161	0.1675	0.9980	9.5581	-0.5603	2.3566	21.3700 
117.469	0.0034	0.1450	0.9507	9.3988	-0.4834	2.2412	21.3600 
117.469	0.0015	0.1509	0.9370	9.2670	-0.3955	2.1753	21.3600 
117.469	0.0078	0.1748	0.9326	9.1571	-0.2966	2.1478	21.3600 
117.469	0.0132	0.1865	0.9531	9.0417	-0.2032	2.1259	21.3500 
117.469	0.0098	0.1880	0.9927	8.9044	-0.0879	2.0764	21.3600 
117.494	0.0142	0.1826	0.9941	8.7451	0.0439	1.9885	21.3500 
117.504	0.0044	0.1719	0.9907	8.5858	0.2142	1.8842	21.3500 
117.524	-0.0054	0.1685	0.9868	8.4485	0.3790	1.7853	21.3400 
117.545	-0.0103	0.1768	0.9946	8.3331	0.5328	1.7084	21.3500 
117.566	-0.0107	0.1904	0.9868	8.2562	0.6592	1.6534	21.3400 
117.674	-0.0073	0.2075	0.9692	8.1958	0.7745	1.5985	21.3300 
117.687	-0.0020	0.2188	0.9580	8.1409	0.8734	1.5491	21.3500 
117.687	0.0039	0.2192	0.9604	8.0859	0.9613	1.5051	21.3500 
117.687	-0.0010	0.2080	0.9663	8.0200	1.0547	1.4502	21.3400 
117.688	-0.0210	0.1978	0.9873	7.9651	1.1646	1.3678	21.3300 
117.694	-0.0259	0.1987	1.0029	7.9321	1.2799	1.2799	21.3200 
117.706	-0.0264	0.2266	1.0376	7.9102	1.3843	1.1975	21.3400 
117.730	-0.0264	0.2441	1.0479	7.9102	1.4777	1.0986	21.3400 
117.752	-0.0405	0.2529	1.0439	7.9266	1.5710	0.9943	21.3400 
117.764	-0.0498	0.2529	1.0449	7.9486	1.6534	0.8844	21.3300 
117.895	-0.0483	0.2378	1.0352	7.9651	1.7029	0.7800	21.3200 
117.907	-0.0361	0.2290	1.0591	7.9706	1.7084	0.6812	21.3100 
117.907	0.0098	0.2231	1.1240	7.9651	1.6205	0.5933	21.3200 
117.908	0.0146	0.2314	1.1084	7.9871	1.4722	0.5109	21.3100 
117.908	0.0186	0.1899	1.1147	8.0090	1.3293	0.4120	21.3200 
117.908	0.0264	0.1660	1.0918	8.0365	1.1700	0.3461	21.3100 
117.914	0.0259	0.1250	1.0195	8.0859	1.0162	0.3296	21.2900 
117.933	0.0327	0.0942	0.9927	8.1464	0.8679	0.3735	21.2900 
117.952	0.0649	0.0771	0.9800	8.2123	0.7031	0.4669	21.2900 
117.976	0.1226	0.0767	0.9937	8.3057	0.5328	0.5603	21.3100 
117.985	0.1499	0.0498	1.0254	8.3606	0.3900	0.6097	21.2900 
118.002	0.1563	0.0059	1.0757	8.3990	0.2911	0.6207	21.3000 
118.114	0.1377	0.0122	1.1172	8.4430	0.2142	0.6317	21.2800 
118.129	0.1011	0.0762	1.1904	8.5144	0.1648	0.6372	21.2900 
118.129	0.0908	0.1323	1.1592	8.6078	0.1538	0.6537	21.2900 
118.130	0.0669	0.1699	1.0264	8.7012	0.2087	0.6372	21.2900 
118.130	0.0742	0.1685	0.9487	8.7781	0.2966	0.6262	21.2700 
118.130	0.0913	0.1499	0.9146	8.7946	0.3790	0.6207	21.2700 
118.152	0.0889	0.1567	0.8975	8.7891	0.4340	0.5823	21.3000 
118.172	0.0928	0.1538	0.9082	8.7396	0.4724	0.5383	21.2900 
118.278	0.0874	0.1328	0.9404	8.6407	0.4944	0.5219	21.2800 
118.292	0.0825	0.1128	0.9766	8.5034	0.5383	0.5493	21.2700 
118.292	0.0869	0.1133	0.9897	8.3661	0.5878	0.6152	21.2700 
118.292	0.0908	0.1367	0.9839	8.2288	0.6482	0.7141	21.2600 
118.292	0.0996	0.1509	0.9751	8.0969	0.6921	0.8020	21.2600 
118.292	0.1128	0.1616	0.9629	7.9651	0.7086	0.8844	21.2600 
118.300	0.1094	0.1377	0.9780	7.8058	0.7086	0.9723	21.2700 
118.319	0.0879	0.1226	0.9902	7.6520	0.7196	1.1041	21.2500 
118.339	0.0928	0.1377	0.9814	7.5421	0.7471	1.2964	21.2600 
118.359	0.1147	0.1587	0.9824	7.4762	0.7635	1.5601	21.2500 
118.381	0.1265	0.1572	1.0049	7.4268	0.7745	1.8622	21.2600 
118.493	0.1367	0.1787	1.0391	7.3938	0.7910	2.1973	21.2500 
118.507	0.1484	0.2012	1.0298	7.3773	0.8020	2.5543	21.2600 
118.507	0.1567	0.1943	1.0356	7.3499	0.7855	2.9279	21.2500 
118.507	0.1504	0.1992	1.0420	7.3279	0.7635	3.3069	21.2600 
118.507	0.1528	0.2290	1.0396	7.3334	0.7416	3.7189	21.2600 
118.514	0.1621	0.2407	1.0371	7.3444	0.7251	4.1473	21.2600 
118.524	0.1641	0.2183	1.0142	7.3224	0.7251	4.5648	21.2500 
118.550	0.1392	0.1846	1.0049	7.2839	0.7416	4.9274	21.2500 
118.558	0.0752	0.1211	1.0352	7.2894	0.7690	5.2405	21.2500 
118.578	0.0435	0.1191	1.1387	7.3334	0.7690	5.5316	21.2500 
118.598	0.0674	0.2505	1.2402	7.4542	0.7251	5.8063	21.2400 
118.706	0.1104	0.3271	1.1865	7.5861	0.6427	6.0370	21.2400 
118.723	0.1006	0.2866	1.0957	7.6740	0.5548	6.1688	21.2200 
118.723	0.0444	0.2017	1.0693	7.7344	0.4449	6.2073	21.2200 
118.723	-0.0488	0.0493	1.0083	7.8552	0.2582	6.2183	21.2200 
118.723	-0.0796	-0.0142	1.0396	8.0200	-0.0494	6.3281	21.2200 
118.730	-0.0850	0.0234	1.0586	8.1409	-0.3845	6.5369	21.2100 
118.742	-0.0625	0.0767	1.0664	8.2013	-0.5823	6.8115	21.2100 
118.764	-0.0542	0.0835	1.0698	8.1958	-0.6702	7.1246	21.2100 
118.787	-0.0464	0.0967	1.1016	8.1079	-0.6262	7.3553	21.2300 
118.807	-0.0005	0.1431	1.0781	7.9871	-0.5603	7.4542	21.2000 
118.912	0.0083	0.1577	1.0186	7.9211	-0.5219	7.4103	21.1900 
118.923	-0.0073	0.1528	0.9453	7.8662	-0.5054	7.1960	21.2000 
118.923	0.0034	0.1411	0.9438	7.7948	-0.4999	6.9159	21.1800 
118.924	0.0210	0.1475	0.9365	7.7179	-0.5109	6.6412	21.1700 
118.924	0.0386	0.1563	0.9155	7.6355	-0.5219	6.3776	21.1800 
118.924	0.0396	0.1621	0.9160	7.5256	-0.4999	6.0754	21.1700 
118.947	0.0288	0.1831	0.9312	7.4048	-0.4559	5.7294	21.1900 
118.956	0.0239	0.1948	0.9521	7.2620	-0.4230	5.3284	21.1800 
118.976	0.0435	0.1919	0.9697	7.0642	-0.4065	4.8779	21.1800 
118.997	0.0405	0.1724	0.9775	6.8060	-0.3735	4.4055	21.1700 
119.016	0.0132	0.1489	0.9849	6.5259	-0.3131	3.9606	21.1700 
119.131	-0.0098	0.1460	0.9897	6.2622	-0.2417	3.5706	21.1700 
119.143	-0.0083	0.1621	0.9619	6.0480	-0.1923	3.2245	21.1700 
119.143	0.0005	0.1655	0.9429	5.8557	-0.1593	2.8729	21.1600 
119.143	0.0093	0.1489	0.9409	5.6580	-0.1208	2.5214	21.1500 
119.143	-0.0078	0.1450	0.9492	5.4822	-0.0714	2.1863	21.1400 
119.143	-0.0215	0.1284	0.9766	5.3119	-0.0275	1.8787	21.1600 
119.167	-0.0303	0.1304	0.9946	5.1855	0.0000	1.6040	21.1600 
119.186	-0.0151	0.1631	1.0068	5.1306	0.0165	1.4063	21.1400 
119.280	0.0088	0.1924	1.0181	5.0977	0.0000	1.2360	21.1400 
119.298	0.0503	0.2158	1.0620	5.0537	-0.0220	1.0712	21.1500 
119.298	0.0479	0.1997	1.1191	4.9878	-0.0385	0.8954	21.1500 
119.298	-0.0073	0.1987	1.1211	4.9878	-0.0110	0.7196	21.1400 
119.298	-0.0444	0.1958	1.0840	5.0592	0.0330	0.5493	21.1500 
119.316	-0.0591	0.2002	1.0469	5.1746	0.0769	0.4010	21.1400 
119.322	-0.0410	0.2324	0.9995	5.2954	0.0879	0.2911	21.1400 
119.339	0.0015	0.2627	0.9395	5.3943	0.0275	0.1758	21.1400 
119.358	0.0547	0.1880	1.0552	5.3833	-0.1208	0.0165	21.1400 
119.382	0.0923	0.1519	1.1587	5.4272	-0.4340	-0.1263	21.1300 
119.491	0.0630	0.1177	1.1777	5.6415	-0.7800	-0.2362	21.1200 
119.504	0.1343	0.0630	1.1919	5.8722	-1.0876	-0.2582	21.1400 
119.504	0.1978	0.0371	1.1548	6.0480	-1.3898	-0.1373	21.1400 
119.504	0.2617	0.0005	1.1548	6.1688	-1.6425	0.0934	21.1300 
119.504	0.2661	-0.0322	1.1709	6.2677	-1.8127	0.3186	21.1100 
119.505	0.2148	-0.0303	1.1650	6.3831	-1.8567	0.4010	21.1300 
119.515	0.1699	-0.0049	1.1436	6.5204	-1.7798	0.2802	21.1200 
119.532	0.1021	0.0181	1.1606	6.6138	-1.6150	0.0000	21.1200 
119.554	0.0703	0.0679	1.1025	6.6907	-1.3898	-0.3406	21.1100 
119.573	0.0645	0.1001	0.9653	6.7676	-1.1151	-0.6921	21.1100 
119.598	0.0854	0.0864	0.8853	6.8445	-0.8459	-0.9503	21.1000 
119.710	0.0986	0.0957	0.8140	6.9489	-0.6262	-1.1206	21.1000 
119.724	0.0923	0.0986	0.8120	7.0587	-0.4669	-1.2854	21.1100 
119.724	0.0820	0.0552	0.8550	7.0972	-0.3845	-1.4832	21.1100 
119.724	0.0747	0.0317	0.8970	7.0807	-0.3241	-1.6974	21.0800 
119.724	0.0767	0.0376	0.9346	7.0642	-0.2856	-1.8622	21.1000 
119.725	0.0879	0.0718	0.9365	7.0807	-0.2527	-1.9391	21.1000 
119.732	0.1177	0.1113	0.9624	7.1301	-0.2417	-1.9061	21.1000 
119.752	0.1348	0.1519	0.9878	7.1686	-0.2362	-1.8182	21.0900 
119.771	0.1440	0.1772	1.0078	7.2015	-0.2197	-1.7358	21.0900 
119.791	0.1436	0.1636	1.0146	7.2015	-0.1923	-1.6534	21.0800 
119.813	0.1235	0.1606	1.0146	7.1796	-0.1538	-1.5436	21.0800 
119.912	0.1128	0.1577	1.0186	7.1521	-0.0879	-1.4063	21.0900 
119.924	0.1133	0.1699	1.0181	7.1082	-0.0110	-1.2360	21.0700 
119.924	0.1260	0.1875	1.0063	7.0642	0.0549	-1.0382	21.0700 
119.924	0.1343	0.1846	1.0029	7.0313	0.1154	-0.8130	21.0900 
119.924	0.1309	0.1929	1.0103	7.0258	0.1593	-0.5603	21.0700 
119.931	0.1318	0.2085	1.0034	7.0752	0.1813	-0.2582	21.0700 
119.951	0.1406	0.2202	1.0176	7.1301	0.1978	0.0934	21.0600 
119.972	0.1436	0.2231	1.0259	7.1686	0.2417	0.4779	21.0700 
119.993	0.1479	0.2310	1.0332	7.1960	0.3186	0.8679	21.0600 
120.016	0.1460	0.2334	1.0176	7.2455	0.4010	1.2415	21.0600 
120.125	0.1240	0.2183	0.9971	7.3279	0.4834	1.5875	21.0500 
120.138	0.1143	0.2104	0.9878	7.4597	0.5603	1.9226	21.0500 
120.138	0.0898	0.1558	1.0601	7.6355	0.6152	2.2852	21.0500 
120.139	0.0718	0.1685	1.1650	7.8662	0.6317	2.6642	21.0500 
120.139	0.0952	0.2915	1.1348	8.2123	0.5878	3.0707	21.0600 
120.139	0.0859	0.2803	1.1372	8.5144	0.5273	3.4772	21.0500 
120.161	0.0200	0.1841	1.1240	8.6517	0.5054	3.7573	21.0500 
120.170	-0.0698	0.1265	1.0850	8.7231	0.5768	3.9441	21.0500 
120.189	-0.1436	0.0293	1.0415	8.7067	0.6921	4.0430	21.0300 
120.209	-0.1670	0.0078	1.1099	8.6517	0.7745	4.1583	21.0300 
120.230	-0.0991	0.0796	1.1455	8.5748	0.7635	4.4055	21.0200 
120.335	-0.0610	0.1357	1.1191	8.4595	0.7306	4.6967	21.0200 
120.349	0.0005	0.1831	1.0874	8.3276	0.7031	4.9384	21.0200 
120.350	0.0420	0.1909	1.0518	8.1683	0.6647	5.0922	21.0400 
120.350	0.0566	0.1772	0.9268	8.0090	0.5988	5.1196	21.0200 
120.350	0.0430	0.1431	0.8701	7.8333	0.5328	5.0537	21.0100 
120.357	0.0151	0.1045	0.8540	7.6520	0.4504	4.9274	21.0200 
120.372	0.0020	0.1040	0.9141	7.4817	0.3571	4.7736	21.0200 
120.391	0.0127	0.1382	0.9502	7.3444	0.2747	4.6143	21.0100 
120.416	0.0264	0.1650	0.9429	7.2290	0.2527	4.4330	20.9900 
120.437	0.0469	0.1958	0.9194	7.1136	0.2911	4.2133	21.0000 
120.540	0.0425	0.1909	0.9351	6.9653	0.3680	3.9386	20.9900 
120.553	0.0200	0.1572	0.9546	6.7950	0.4559	3.5980	20.9900 
120.553	-0.0049	0.1367	0.9668	6.6302	0.5603	3.2355	20.9900 
120.553	-0.0391	0.1313	0.9561	6.4819	0.6537	2.8949	20.9800 
120.553	-0.0425	0.1401	0.9595	6.3666	0.7306	2.5983	20.9700 
120.559	-0.0273	0.1665	0.9517	6.2787	0.7910	2.3456	20.9900 
120.574	-0.0171	0.2090	0.9292	6.2292	0.8185	2.1313	20.9800 
120.598	0.0137	0.2485	0.9116	6.1963	0.7855	1.9391	20.9600 
120.607	0.0088	0.2222	0.9434	6.1578	0.7086	1.7468	20.9600 
120.627	-0.0171	0.1826	1.0254	6.1029	0.6372	1.5326	20.9900 
120.647	-0.0425	0.1841	1.0752	6.0809	0.5768	1.2854	20.9700 
120.757	-0.0435	0.2124	1.0967	6.0864	0.5054	1.0602	20.9700 
120.771	-0.0225	0.2407	1.0752	6.1194	0.4230	0.8405	20.9600 
120.771	-0.0151	0.2451	1.0430	6.1908	0.3351	0.6262	20.9500 
120.771	-0.0322	0.2397	1.0117	6.2787	0.2307	0.3790	20.9400 
120.771	-0.0146	0.2070	1.0942	6.3611	0.0989	0.0824	20.9300 
120.789	0.0615	0.1914	1.2046	6.4050	-0.1208	-0.2417	20.9400 
120.806	0.0938	0.1587	1.1758	6.5479	-0.4614	-0.5768	20.9400 
120.923	0.1060	0.1094	1.1826	6.7017	-0.7855	-0.9393	20.9200 
120.936	0.1548	0.0601	1.1484	6.8115	-1.1371	-1.2085	20.9400 
120.936	0.2251	-0.0366	1.1543	6.9049	-1.5106	-1.3019	20.9200 
120.937	0.2598	-0.0688	1.1548	6.9873	-1.9171	-1.2415	20.9200 
120.937	0.2329	-0.0127	1.2056	7.0203	-2.1973	-1.2469	20.8900 
120.937	0.1997	-0.0068	1.2417	6.9983	-2.3676	-1.3513	20.9200 
120.937	0.1255	0.0308	1.2446	6.8939	-2.4060	-1.5765	20.9000 
120.946	0.0801	0.0972	1.1099	6.9104	-2.3401	-1.8347	20.9100 
120.965	0.0952	0.0972	0.8945	6.9269	-2.2247	-2.0160	20.9000 
120.985	0.1235	0.0493	0.7988	6.9269	-2.1204	-2.0599	20.8900 
121.006	0.1177	0.0854	0.7168	6.9928	-2.0764	-2.0490	20.9000 
121.028	0.1221	0.0806	0.7686	7.0532	-2.0874	-2.0105	20.9000 
121.138	0.1240	0.0493	0.8955	7.0148	-2.0435	-2.0050	20.9000 
121.158	0.1533	0.0938	0.9297	6.9763	-1.9885	-2.0764	20.9100 
121.158	0.1914	0.1426	0.9590	6.9104	-1.9446	-2.1368	20.8900 
121.158	0.1958	0.1436	0.9561	6.8500	-1.9061	-2.1643	20.8900 
121.158	0.1602	0.1143	1.0156	6.7621	-1.8677	-2.1478	20.8800 
121.159	0.1304	0.1338	1.0259	6.6962	-1.7963	-2.1313	20.8800 
121.173	0.1289	0.1694	0.9868	6.6522	-1.7029	-2.0599	20.8800 
121.196	0.1426	0.1748	0.9790	6.6028	-1.5875	-1.9556	20.8600 
121.203	0.1475	0.1582	0.9741	6.5369	-1.4941	-1.8347	20.8700 
121.223	0.1494	0.1470	0.9868	6.4709	-1.4008	-1.7194	20.8700 
121.243	0.1470	0.1514	0.9731	6.4325	-1.3019	-1.6150	20.8700 
121.346	0.1484	0.1538	0.9727	6.4160	-1.2140	-1.4777	20.8500 
121.362	0.1514	0.1724	0.9985	6.4105	-1.1316	-1.3074	20.8600 
121.362	0.1577	0.1997	1.0146	6.4490	-1.0602	-1.0986	20.8500 
121.362	0.1641	0.2207	1.0225	6.5204	-0.9943	-0.8569	20.8400 
121.362	0.1680	0.2300	1.0220	6.6193	-0.9229	-0.5878	20.8300 
121.382	0.1670	0.2319	1.0308	6.7456	-0.8350	-0.2856	20.8400 
121.388	0.1602	0.2324	1.0347	6.8829	-0.7141	0.0439	20.8400 
121.402	0.1426	0.2363	1.0303	7.0422	-0.5713	0.4010	20.8200 
121.425	0.1333	0.2251	0.9932	7.2510	-0.4449	0.7690	20.8100 
121.448	0.0850	0.1064	1.1191	7.4542	-0.3351	1.1700	20.8000 
121.553	0.0557	0.1362	1.2847	7.6520	-0.2197	1.5546	20.8000 
121.570	0.1191	0.2856	1.2373	7.9486	-0.1208	1.9885	20.7900 
121.570	0.0991	0.2769	1.1455	8.2782	-0.0220	2.4500	20.7900 
121.570	-0.0107	0.1875	1.0220	8.6023	0.1208	2.8674	20.7900 
121.571	-0.0664	0.1089	0.9272	8.9264	0.2472	3.1970	20.7900 
121.588	-0.1436	-0.0366	0.9829	9.2065	0.3131	3.4827	20.7700 
121.596	-0.1519	0.0332	1.1431	9.3713	0.3900	3.7738	20.7700 
121.609	-0.0479	0.1924	1.1943	9.4208	0.4230	4.1913	20.7600 
121.633	0.0205	0.2305	1.1606	9.4043	0.4230	4.6417	20.7700 
121.642	0.0801	0.2588	1.1260	9.2834	0.4120	4.9438	20.7700 
121.762	0.0981	0.2539	1.0371	9.1351	0.3845	5.0647	20.7600 
121.783	0.0474	0.1870	0.8799	8.9813	0.3461	5.0208	20.7400 
121.783	0.0010	0.1245	0.8169	8.8495	0.2966	4.9329	20.7300 
121.783	-0.0200	0.0850	0.8408	8.7012	0.2802	4.8505	20.7300 
121.783	-0.0137	0.1060	0.9136	8.5364	0.3131	4.7791	20.7300 
121.784	0.0225	0.1816	0.9180	8.4210	0.3680	4.7076	20.7300 
121.798	0.0410	0.2051	0.9048	8.3386	0.4504	4.6252	20.7400 
121.805	0.0430	0.2124	0.9116	8.2672	0.5548	4.5044	20.7300 
121.821	0.0244	0.1992	0.9697	8.1683	0.6757	4.3396	20.7200 
121.841	0.0161	0.2007	0.9917	8.0475	0.8075	4.1199	20.7300 
121.866	0.0093	0.2085	0.9785	7.9376	0.9723	3.8507	20.7300 
121.973	-0.0049	0.2012	0.9224	7.8607	1.1700	3.5596	20.7200 
121.988	-0.0317	0.2085	0.8696	7.8333	1.3568	3.2684	20.7200 
121.988	-0.0244	0.2251	0.8818	7.8113	1.4832	2.9663	20.7200 
121.988	0.0044	0.2505	0.9209	7.7454	1.5601	2.6477	20.7100 
121.988	0.0146	0.2539	0.9624	7.6575	1.6040	2.3016	20.7200 
121.988	-0.0132	0.2520	1.0127	7.5970	1.6205	1.9611	20.7000 
122.008	-0.0444	0.2773	1.0352	7.5751	1.6425	1.5985	20.7200 
122.031	-0.0415	0.2798	1.0591	7.5201	1.6534	1.2415	20.7000 
122.139	-0.0396	0.2656	1.0703	7.4213	1.6589	0.8679	20.7000 
122.153	-0.0420	0.2183	1.1216	7.2894	1.6479	0.4944	20.7000 
122.153	-0.0132	0.1938	1.2070	7.1521	1.5820	0.1318	20.6800 
122.153	0.0698	0.2012	1.3198	7.0203	1.4008	-0.1978	20.7000 
122.153	0.0547	0.1748	1.3301	6.9489	1.2305	-0.5054	20.7000 
122.153	0.0703	0.1592	1.2759	6.9489	1.1426	-0.6976	20.6900 
122.159	0.0859	0.1675	1.1558	6.9763	1.1261	-0.7416	20.6800 
122.179	0.1191	0.1099	1.0322	6.9434	1.1536	-0.6866	20.6800 
122.197	0.1270	0.0430	0.9849	6.8884	1.1920	-0.6372	20.6700 
122.220	0.1157	-0.0581	0.9731	6.8060	1.2195	-0.7141	20.6800 
122.241	0.0903	-0.0977	1.0176	6.7072	1.2524	-0.9064	20.6700 
122.350	0.0542	-0.0835	1.1099	6.5753	1.3239	-1.1755	20.6500 
122.364	0.0488	-0.0386	1.1255	6.4325	1.4337	-1.4117	20.6700 
122.364	0.0410	0.0386	1.0435	6.3501	1.5656	-1.5491	20.6500 
122.365	0.0513	0.0669	0.9702	6.3611	1.6974	-1.6315	20.6500 
122.365	0.0762	0.0903	0.8799	6.4380	1.7963	-1.6864	20.6400 
122.365	0.0664	0.0947	0.8389	6.5149	1.8567	-1.7688	20.6500 
122.385	0.0430	0.0435	0.8652	6.5259	1.8896	-1.8842	20.6500 
122.408	0.0352	0.0317	0.9136	6.4709	1.9006	-1.9940	20.6500 
122.417	0.0601	0.0698	0.9302	6.4380	1.9006	-2.0599	20.6400 
122.436	0.0889	0.0947	0.9292	6.4380	1.8677	-2.0490	20.6400 
122.457	0.1152	0.1182	0.9482	6.4490	1.8018	-1.9775	20.6400 
122.554	0.1133	0.1211	0.9727	6.4600	1.7303	-1.8951	20.6300 
122.567	0.0938	0.1333	1.0156	6.4819	1.6754	-1.8182	20.6400 
122.567	0.0957	0.1411	1.0288	6.5039	1.6315	-1.7194	20.6300 
122.567	0.1177	0.1685	1.0303	6.5314	1.5820	-1.5765	20.6400 
122.567	0.1328	0.1719	1.0400	6.5479	1.5326	-1.3843	20.6400 
122.580	0.1279	0.1533	1.0449	6.5753	1.5161	-1.1646	20.6300 
122.596	0.1094	0.1514	1.0225	6.6522	1.5326	-0.9009	20.6400 
122.615	0.0977	0.1792	1.0093	6.7950	1.5656	-0.5713	20.6200 
122.640	0.1084	0.2163	1.0083	6.9928	1.5820	-0.1758	20.6200 
122.659	0.1426	0.2529	1.0034	7.2125	1.5710	0.2417	20.6200 
122.769	0.1582	0.2661	1.0166	7.4268	1.5601	0.6647	20.6200 
122.782	0.1572	0.2417	0.9736	7.6465	1.5491	1.0217	20.6300 
122.782	0.1060	0.2012	0.9507	7.8717	1.5546	1.3293	20.6300 
122.782	0.0283	0.1206	1.0083	8.1189	1.5710	1.6479	20.6200 
122.782	0.0093	0.1279	1.1401	8.3936	1.5601	2.0435	20.6100 
122.782	0.0381	0.2505	1.1514	8.8220	1.4612	2.5873	20.6100 
122.805	0.0811	0.2759	1.1201	9.2725	1.3129	3.1915	20.6100 
122.827	0.0405	0.2622	1.1509	9.6075	1.2140	3.6804	20.6100 
122.839	-0.0938	0.1875	1.1406	9.7668	1.2524	4.0265	20.6200 
122.853	-0.1748	0.1157	1.1396	9.7229	1.4117	4.2517	20.6000 
122.873	-0.2163	0.0713	1.2173	9.6295	1.5765	4.5374	20.6000 
122.980	-0.1191	0.1240	1.2104	9.5032	1.6370	5.0262	20.5800 
122.995	0.0127	0.2139	1.1211	9.3604	1.5875	5.5646	20.5800 
122.995	0.0464	0.2295	1.0532	9.1956	1.4832	5.9985	20.5700 
122.995	0.0527	0.1938	0.9189	9.0363	1.3513	6.3116	20.5900 
122.995	0.0332	0.1533	0.8667	8.8934	1.2305	6.5643	20.5600 
123.003	-0.0020	0.1265	0.8301	8.7506	1.1646	6.7621	20.5600 
123.017	-0.0063	0.1362	0.8413	8.6078	1.1261	6.8994	20.5700 
123.041	-0.0068	0.1538	0.9102	8.4595	1.1096	6.9324	20.5600 
123.061	-0.0059	0.1665	0.9429	8.3221	1.1041	6.8665	20.5600 
123.083	-0.0146	0.1890	0.9678	8.2013	1.1591	6.7291	20.5500 
123.201	-0.0249	0.2192	0.9507	8.1134	1.2579	6.5259	20.5500 
123.208	-0.0327	0.2168	0.9307	8.0145	1.3898	6.2787	20.5500 
123.208	-0.0381	0.2163	0.9209	7.8827	1.5271	5.9985	20.5400 
123.208	-0.0537	0.2114	0.9224	7.7344	1.6644	5.7019	20.5300 
123.208	-0.0522	0.2041	0.9121	7.5531	1.7853	5.3998	20.5300 
123.208	-0.0527	0.1948	0.9194	7.3663	1.8622	5.1031	20.5300 
123.218	-0.0474	0.1987	0.9307	7.2070	1.8896	4.8175	20.5200 
123.237	-0.0327	0.2119	0.9653	7.0642	1.8567	4.5319	20.5200 
123.258	-0.0313	0.2212	0.9854	6.9489	1.8073	4.2517	20.5300 
123.358	-0.0239	0.2651	0.9873	6.8665	1.7358	3.9551	20.5200 
123.372	-0.0127	0.2671	1.0029	6.8390	1.6589	3.6694	20.5000 
123.372	-0.0049	0.2480	1.0220	6.8445	1.5491	3.3893	20.5200 
123.372	-0.0151	0.2402	1.0332	6.8994	1.4392	3.1146	20.5100 
123.372	-0.0391	0.2666	1.0381	7.0038	1.3239	2.8510	20.5000 
123.380	-0.0313	0.2715	1.0669	7.1191	1.2030	2.6312	20.5000 
123.397	0.0439	0.2305	1.1709	7.1851	1.0602	2.4170	20.4900 
123.418	0.0532	0.1973	1.1763	7.2345	0.8844	2.1753	20.4900 
123.441	0.0801	0.0957	1.1953	7.2949	0.6866	1.9116	20.4900 
123.463	0.1294	0.0078	1.1934	7.3608	0.4449	1.7358	20.4700 
123.578	0.1401	-0.0444	1.1880	7.4542	0.1813	1.7303	20.4700 
123.590	0.1445	0.0044	1.2056	7.5366	0.0165	1.8237	20.4600 
123.591	0.1553	0.0313	1.2764	7.5092	-0.0220	1.9061	20.4600 
123.591	0.1167	0.0498	1.2817	7.4432	0.0000	1.9281	20.4700 
123.591	0.0439	0.1143	1.1602	7.3993	0.0934	1.8512	20.4500 
123.591	0.0244	0.1338	1.0459	7.3444	0.2087	1.7249	20.4600 
123.597	0.0454	0.1040	0.9131	7.2565	0.2747	1.6260	20.4600 
123.615	0.0649	0.0903	0.8594	7.1851	0.2747	1.5820	20.4600 
123.636	0.0913	0.1128	0.7959	7.2125	0.1978	1.5930	20.4600 
123.661	0.1025	0.0981	0.7905	7.2455	0.0769	1.6260	20.4400 
123.682	0.0957	0.0703	0.8281	7.1906	0.0000	1.6205	20.4500 
123.788	0.0894	0.0605	0.8682	7.1191	-0.0330	1.5875	20.4500 
123.801	0.0928	0.0679	0.8989	7.0258	-0.0220	1.5765	20.4500 
123.801	0.1021	0.1392	0.9355	6.9104	0.0220	1.6205	20.4300 
123.801	0.1279	0.1753	0.9604	6.7950	0.1318	1.6699	20.4400 
123.801	0.1523	0.1699	0.9868	6.6632	0.2582	1.7029	20.4400 
123.801	0.1377	0.1753	0.9775	6.5808	0.3625	1.7303	20.4300 
123.808	0.1011	0.1616	1.0078	6.4709	0.4944	1.7743	20.4400 
123.829	0.0908	0.1387	1.0244	6.3391	0.6592	1.8951	20.4400 
123.849	0.0967	0.1699	1.0132	6.2457	0.8295	2.0709	20.4400 
123.868	0.1152	0.1816	1.0083	6.2018	0.9943	2.3071	20.4300 
123.890	0.1250	0.2109	1.0293	6.1963	1.1371	2.5598	20.4100 
124.007	0.1299	0.2456	1.0317	6.2457	1.2469	2.8015	20.4300 
124.020	0.1372	0.2617	1.0269	6.3611	1.3129	3.0377	20.4100 
124.020	0.1279	0.2813	1.0234	6.5424	1.3678	3.2739	20.4200 
124.020	0.1172	0.2983	1.0303	6.7786	1.4392	3.4937	20.4100 
124.020	0.1172	0.2803	0.9888	7.0642	1.4886	3.7134	20.4000 
124.020	0.0596	0.1558	1.0327	7.3224	1.5601	3.9606	20.4100 
124.027	0.0054	0.0977	1.2202	7.5256	1.6534	4.2023	20.4000 
124.046	0.0059	0.3120	1.2627	7.8662	1.7084	4.4330	20.4000 
124.170	0.0068	0.3638	1.1807	8.3057	1.7468	4.6912	20.3900 
124.176	-0.0186	0.2720	0.9404	8.5858	1.7578	4.9274	20.3900 
124.176	-0.0640	0.0825	0.8892	8.6188	1.7798	5.0922	20.3800 
124.176	-0.1641	-0.1885	1.0571	8.3661	1.7908	5.1141	20.4000 
124.176	-0.2236	-0.1831	1.2461	8.0969	1.7963	5.1471	20.3900 
124.176	-0.1479	0.0596	1.3472	7.8552	1.7908	5.3229	20.3800 
124.186	-0.0688	0.1685	1.2886	7.6355	1.7633	5.6360	20.3700 
124.207	0.0195	0.2280	1.1816	7.3773	1.7688	5.9491	20.3700 
124.227	0.0688	0.2378	1.0571	7.0807	1.7798	6.1469	20.3600 
124.250	0.0684	0.1978	0.8716	6.8610	1.7194	6.2238	20.3500 
124.273	0.0142	0.1367	0.7969	6.7291	1.6040	6.2457	20.3400 
124.371	-0.0361	0.0474	0.8022	6.6028	1.4996	6.2622	20.3500 
124.384	-0.0405	0.0005	0.8574	6.4270	1.4282	6.2842	20.3500 
124.384	-0.0386	0.0376	0.9126	6.2292	1.4502	6.2622	20.3500 
124.385	-0.0186	0.1255	0.9097	6.0864	1.5381	6.2128	20.3400 
124.385	0.0239	0.2124	0.8740	5.9875	1.6315	6.1523	20.3300 
124.391	0.0371	0.1885	0.8848	5.8612	1.6974	6.0590	20.3200 
124.406	-0.0278	0.1167	0.9424	5.6964	1.7523	5.8942	20.3300 
124.428	-0.0767	0.1147	0.9648	5.5591	1.8292	5.6689	20.3200 
124.450	-0.0615	0.1411	0.9575	5.5096	1.8567	5.4547	20.3300 
124.473	-0.0400	0.1426	0.9810	5.4767	1.8402	5.2625	20.3300 
124.579	-0.0308	0.1968	1.0127	5.4767	1.8347	4.9823	20.3200 
124.592	-0.0347	0.2222	1.0117	5.5206	1.8292	4.6143	20.3200 
124.592	-0.0469	0.2129	1.0083	5.6250	1.7688	4.1803	20.3000 
124.592	-0.0669	0.1846	1.0127	5.7513	1.6644	3.7408	20.3000 
124.592	-0.0854	0.1743	1.0005	5.9216	1.5546	3.3618	20.3200 
124.592	-0.0806	0.1685	1.0361	6.1249	1.4612	3.0487	20.3200 
124.614	-0.0264	0.1406	1.1543	6.2897	1.3733	2.8290	20.3000 
124.623	0.0708	0.1963	1.2339	6.4655	1.2030	2.6587	20.2900 
124.643	0.1182	0.1719	1.2549	6.6797	0.9888	2.4609	20.2900 
124.663	0.1904	0.1021	1.2720	6.8225	0.7416	2.2522	20.2900 
124.686	0.2051	0.0537	1.2148	6.9324	0.5164	2.1039	20.2700 
124.798	0.2051	0.0327	1.1060	7.0697	0.3296	2.0654	20.2700 
124.816	0.1914	0.0254	1.1133	7.1466	0.1978	2.0709	20.2800 
124.816	0.1421	0.0137	1.1851	7.1686	0.1263	2.0160	20.2800 
124.816	0.1021	0.0781	1.1519	7.2070	0.1318	1.8512	20.2600 
124.816	0.0723	0.1035	1.0200	7.2125	0.1978	1.6479	20.2600 
124.816	0.0835	0.0630	0.9336	7.1576	0.2747	1.5271	20.2600 
124.832	0.0923	0.0391	0.8394	7.1136	0.3241	1.5381	20.2700 
124.842	0.0991	0.0532	0.8105	7.0862	0.3680	1.5985	20.2400 
124.861	0.1006	0.0815	0.8438	7.0752	0.4120	1.6699	20.2400 
124.881	0.1147	0.0786	0.8838	7.0203	0.4285	1.7413	20.2500 
124.901	0.1265	0.0898	0.9204	6.9214	0.4395	1.7908	20.2400 
125.010	0.1294	0.0967	0.9487	6.7896	0.4614	1.8292	20.2500 
125.022	0.1436	0.0947	0.9795	6.6577	0.4669	1.8842	20.2300 
125.023	0.1372	0.1050	1.0000	6.5698	0.4504	1.9556	20.2400 
125.023	0.1323	0.1245	1.0229	6.5149	0.3900	2.0490	20.2200 
125.023	0.1270	0.1348	1.0322	6.4655	0.3186	2.2028	20.2100 
125.029	0.1304	0.1450	1.0278	6.4270	0.2692	2.4225	20.2100 
125.048	0.1333	0.1553	1.0161	6.3995	0.2417	2.6917	20.2000 
125.065	0.1465	0.1782	0.9814	6.3995	0.2087	3.0157	20.2100 
125.080	0.1489	0.1816	0.9736	6.4160	0.1813	3.3948	20.2000 
125.101	0.1445	0.1411	0.9927	6.4160	0.1593	3.8013	20.2000 
125.229	0.1323	0.1323	1.0112	6.4215	0.1593	4.2407	20.2100 
125.235	0.1392	0.1782	1.0039	6.4819	0.1978	4.7241	20.2000 
125.235	0.1655	0.2217	0.9888	6.5973	0.2197	5.2350	20.2000 
125.235	0.1875	0.2568	0.9780	6.7511	0.2362	5.7513	20.1900 
125.235	0.1719	0.2246	0.9951	6.8994	0.2637	6.2292	20.1800 
125.235	0.0869	0.1499	1.0781	7.0477	0.3406	6.6742	20.1800 
125.241	0.0400	0.1445	1.2104	7.1906	0.4504	7.0752	20.2000 
125.265	0.0640	0.2627	1.2080	7.4103	0.5328	7.4927	20.1800 
125.287	0.0571	0.2773	1.2021	7.6190	0.6042	7.9156	20.1900 
125.390	0.0122	0.2407	1.0645	7.8058	0.6537	8.2617	20.1700 
125.404	-0.0327	0.1343	1.0181	7.9211	0.6812	8.5474	20.1700 
125.404	-0.1089	-0.0024	1.0767	7.9486	0.6647	8.8000	20.1700 
125.404	-0.1436	0.0254	1.1367	7.9651	0.6207	9.0857	20.1400 
125.404	-0.0845	0.1528	1.1377	7.9376	0.6207	9.4757	20.1700 
125.410	-0.0288	0.1895	1.1235	7.8278	0.6427	9.9316	20.1600 
125.425	0.0483	0.2275	1.0620	7.6190	0.6702	10.3052	20.1400 
125.451	0.0625	0.2275	0.9712	7.4048	0.6812	10.5414	20.1400 
125.458	0.0327	0.1514	0.8652	7.1631	0.6702	10.6293	20.1300 
125.478	-0.0015	0.0942	0.8525	6.8774	0.6592	10.6567	20.1300 
125.497	-0.0142	0.0820	0.8501	6.5973	0.6592	10.6293	20.1300 
125.607	0.0127	0.0928	0.8608	6.3556	0.6427	10.6128	20.1200 
125.620	0.0283	0.1211	0.8745	6.1469	0.6207	10.5853	20.1200 
125.620	0.0444	0.1489	0.9023	5.9381	0.6317	10.5194	20.1300 
125.621	0.0347	0.1333	0.9399	5.7294	0.6812	10.3986	20.1100 
125.621	-0.0059	0.1187	0.9888	5.5206	0.7471	10.2008	20.1000 
125.628	-0.0405	0.1118	1.0234	5.3668	0.8020	9.9811	20.1100 
125.641	-0.0376	0.1533	1.0117	5.2789	0.8240	9.7943	20.1000 
125.665	-0.0166	0.1880	0.9814	5.2734	0.7965	9.6625	20.1100 
125.683	0.0161	0.2212	0.9414	5.2844	0.7690	9.5361	20.0900 
125.713	0.0127	0.2358	0.9316	5.3284	0.7361	9.3768	20.0700 
125.825	0.0078	0.2505	0.9902	5.3339	0.6976	9.1681	20.0800 
125.841	0.0034	0.2202	1.0278	5.2899	0.6207	8.8879	20.0900 
125.841	0.0049	0.2354	1.0322	5.2625	0.5054	8.5419	20.0800 
125.841	-0.0171	0.2129	1.0298	5.2789	0.3680	8.2068	20.0600 
125.841	-0.0234	0.1738	1.0381	5.3503	0.1978	7.9266	20.0500 
125.841	-0.0259	0.1816	1.0273	5.4767	0.0055	7.7289	20.0500 
125.858	0.0063	0.2310	1.0601	5.6525	-0.2087	7.5970	20.0500 
125.863	0.0830	0.2285	1.1411	5.7953	-0.4889	7.4707	20.0600 
125.881	0.1836	0.2065	1.1875	5.8997	-0.8459	7.3059	20.0400 
125.905	0.1675	0.1333	1.2104	6.0315	-1.1920	7.0807	20.0500 
125.925	0.1855	0.0034	1.2095	6.1469	-1.4722	6.8774	20.0300 
126.037	0.1831	-0.0405	1.1870	6.3281	-1.6974	6.7896	20.0400 
126.051	0.1992	-0.0142	1.1489	6.5314	-1.8402	6.7896	20.0300 
126.051	0.2124	0.0117	1.1470	6.6797	-1.8842	6.7950	20.0200 
126.051	0.1670	0.0332	1.1758	6.7566	-1.8292	6.7181	20.0100 
126.052	0.1123	0.0645	1.2104	6.7896	-1.6864	6.5314	20.0200 
126.052	0.0918	0.1367	1.0928	6.8005	-1.4777	6.2732	20.0000 
126.058	0.1069	0.1328	0.9746	6.7291	-1.2360	5.9985	20.0000 
126.075	0.1255	0.0776	0.8457	6.6193	-1.0052	5.7678	20.0100 
126.206	0.1040	0.0249	0.8179	6.5204	-0.7965	5.6140	19.9900 
126.212	0.0474	0.0137	0.8135	6.4215	-0.5713	5.4657	19.9900 
126.212	0.0298	0.0293	0.8442	6.3391	-0.3406	5.2734	20.0000 
126.212	0.0752	0.0347	0.9072	6.2567	-0.1703	5.1471	19.9800 
126.213	0.0967	0.0537	0.9253	6.2018	-0.0604	5.0867	19.9900 
126.213	0.1084	0.0894	0.9233	6.1743	0.0165	5.0757	19.9700 
126.219	0.1089	0.1045	0.9297	6.1688	0.0659	5.0757	19.9800 
126.240	0.1064	0.1182	0.9688	6.1688	0.0494	5.0977	19.9800 
126.264	0.1123	0.1157	1.0000	6.1633	0.0000	5.1526	19.9800 
126.284	0.1299	0.1265	1.0352	6.1523	-0.0659	5.2844	19.9700 
126.293	0.1494	0.1455	1.0449	6.1633	-0.1154	5.4987	19.9600 
126.313	0.1704	0.1865	1.0156	6.2238	-0.1813	5.7678	19.9600 
126.426	0.1665	0.1982	1.0107	6.3116	-0.2362	6.0590	19.9800 
126.439	0.1602	0.2163	1.0015	6.4160	-0.2747	6.3391	19.9600 
126.439	0.1675	0.2212	1.0068	6.5039	-0.3076	6.6302	19.9700 
126.439	0.1704	0.2329	1.0029	6.5753	-0.3186	6.9104	19.9600 
126.439	0.1675	0.2363	0.9985	6.6742	-0.3351	7.1851	19.9500 
126.439	0.1680	0.2271	1.0039	6.8005	-0.3955	7.4597	19.9400 
126.462	0.1431	0.2114	1.0073	6.9818	-0.4779	7.7454	19.9300 
126.483	0.1343	0.2070	1.0044	7.2125	-0.5878	8.0750	19.9500 
126.492	0.1221	0.1958	1.0332	7.4872	-0.7196	8.4485	19.9400 
126.513	0.1001	0.1924	1.1250	7.7563	-0.8844	8.8550	19.9400 
126.532	0.1128	0.2993	1.2007	8.0365	-1.0767	9.2450	19.9400 
126.646	0.1172	0.2808	1.2119	8.2617	-1.2744	9.5856	19.9300 
126.659	0.0684	0.2324	1.1694	8.3661	-1.3953	9.7998	19.9400 
126.659	-0.0127	0.1572	1.1011	8.3771	-1.4008	9.9097	19.9200 
126.659	-0.0825	0.0439	1.0928	8.2672	-1.3184	9.9426	19.9300 
126.660	-0.0884	0.0142	1.1084	8.1079	-1.2854	10.0360	19.9300 
126.660	-0.0298	0.0581	1.1094	7.9156	-1.3293	10.2393	19.9300 
126.682	0.0034	0.0972	1.1050	7.6849	-1.3678	10.5249	19.9000 
126.701	0.0532	0.1445	1.0776	7.3993	-1.3733	10.8490	19.9100 
126.801	0.0874	0.1587	1.0034	7.1027	-1.3623	11.1346	19.9200 
126.816	0.0957	0.1108	0.8862	6.8060	-1.3568	11.3049	19.9200 
126.816	0.0693	0.0693	0.8594	6.5369	-1.3513	11.3763	19.9200 
126.816	0.0435	0.0508	0.8721	6.3446	-1.3293	11.3818	19.9100 
126.816	0.0293	0.0767	0.8950	6.2292	-1.3074	11.3599	19.9000 
126.822	0.0317	0.1211	0.9302	6.1908	-1.2579	11.3324	19.9000 
126.837	0.0376	0.1465	0.9473	6.1963	-1.1810	11.2994	19.8900 
126.863	0.0586	0.1870	0.9272	6.2347	-1.0876	11.2335	19.8800 
126.870	0.0449	0.1895	0.9214	6.2567	-0.9613	11.1237	19.9000 
126.889	0.0078	0.1514	0.9424	6.2402	-0.8075	10.9644	19.8800 
126.909	-0.0117	0.1450	0.9614	6.2128	-0.6702	10.8270	19.9000 
127.018	-0.0117	0.1572	0.9741	6.1853	-0.5823	10.7446	19.8700 
127.032	0.0034	0.1704	0.9756	6.1469	-0.5273	10.7281	19.8600 
127.032	0.0298	0.2095	0.9609	6.1359	-0.5109	10.7556	19.8500 
127.032	0.0386	0.2329	0.9736	6.1688	-0.5273	10.7831	19.8700 
127.032	0.0381	0.2632	1.0239	6.2238	-0.5548	10.7391	19.8700 
127.038	0.0293	0.2739	1.0137	6.3062	-0.5658	10.5908	19.8600 
127.053	-0.0068	0.2397	1.0181	6.4105	-0.5438	10.3491	19.8600 
127.074	-0.0361	0.2227	1.0269	6.5314	-0.5054	10.0745	19.8500 
127.098	-0.0332	0.2422	1.0107	6.7126	-0.5054	9.8383	19.8600 
127.122	0.0010	0.2632	1.0151	6.9159	-0.5658	9.6625	19.8600 
127.234	0.0806	0.2427	1.1318	7.0697	-0.7251	9.5032	19.8600 
127.247	0.1172	0.2427	1.2153	7.1631	-0.9668	9.2944	19.8500 
127.247	0.1572	0.1792	1.2559	7.2565	-1.2469	8.9978	19.8400 
127.248	0.1987	0.1016	1.2349	7.3004	-1.5106	8.6627	19.8300 
127.248	0.1909	0.0444	1.1479	7.3938	-1.7578	8.4595	19.8200 
127.248	0.1807	0.0283	1.0991	7.5311	-1.9775	8.3661	19.8200 
127.253	0.2207	-0.0425	1.1470	7.5037	-2.0929	8.3167	19.8300 
127.268	0.1650	-0.0171	1.1919	7.4103	-2.1094	8.1683	19.8400 
127.292	0.0889	0.0742	1.1606	7.3444	-1.9940	7.8442	19.8400 
127.315	0.0854	0.1035	1.0625	7.2345	-1.8347	7.4872	19.8200 
127.334	0.0869	0.0874	0.9653	7.0587	-1.6699	7.1741	19.8100 
127.444	0.1099	0.0493	0.8638	6.8884	-1.5381	6.9763	19.8100 
127.458	0.1226	0.0293	0.8579	6.7291	-1.4227	6.8829	19.8200 
127.458	0.1152	0.0601	0.8730	6.6193	-1.3129	6.7621	19.8100 
127.458	0.1045	0.0503	0.9004	6.5533	-1.2250	6.6467	19.8100 
127.458	0.0908	0.0176	0.9395	6.5204	-1.1810	6.5698	19.8100 
127.458	0.0923	0.0303	0.9502	6.5259	-1.1700	6.5369	19.8000 
127.467	0.1187	0.0952	0.9404	6.5533	-1.1536	6.5643	19.7900 
127.485	0.1460	0.1421	0.9424	6.5918	-1.1481	6.6632	19.7900 
127.505	0.1709	0.1812	0.9629	6.6357	-1.1426	6.8005	19.7900 
127.526	0.1753	0.1606	0.9575	6.6632	-1.1371	6.9379	19.8000 
127.548	0.1323	0.1348	0.9688	6.6742	-1.0767	7.0422	19.7800 
127.659	0.1162	0.1235	0.9761	6.6797	-0.9723	7.1576	19.7800 
127.674	0.1152	0.1191	1.0195	6.6687	-0.8295	7.3389	19.8100 
127.674	0.1152	0.1567	1.0371	6.6852	-0.6757	7.5476	19.7900 
127.674	0.1445	0.2168	1.0249	6.7401	-0.5493	7.7893	19.7800 
127.674	0.1577	0.2310	1.0210	6.8225	-0.4614	8.0475	19.7800 
127.674	0.1616	0.2568	1.0234	6.9269	-0.3955	8.3002	19.7800 
127.692	0.1675	0.2832	1.0132	7.0587	-0.3516	8.5419	19.7800 
127.717	0.1592	0.2778	1.0049	7.1906	-0.3021	8.7726	19.7600 
127.814	0.1299	0.2422	1.0122	7.3169	-0.2362	8.9868	19.7600 
127.829	0.0908	0.1953	1.0327	7.4707	-0.1758	9.2065	19.7700 
127.829	0.0806	0.1802	1.1094	7.6135	-0.1263	9.4153	19.7700 
127.829	0.1021	0.2866	1.1738	7.7673	-0.0989	9.6130	19.7800 
127.829	0.1245	0.3145	1.1099	7.9816	-0.1263	9.8438	19.7600 
127.836	0.0718	0.1816	1.1255	8.1189	-0.1483	10.0964	19.7800 
127.851	0.0005	0.1177	1.0918	8.2068	-0.1318	10.2722	19.7500 
127.872	-0.0757	0.0239	1.0586	8.2452	-0.0659	10.3546	19.7500 
127.895	-0.0981	-0.0205	1.0957	8.1903	0.0055	10.4645	19.7500 
127.916	-0.0908	0.0674	1.1465	8.0750	0.0659	10.7062	19.7400 
128.033	-0.0361	0.1382	1.1592	7.8827	0.1538	11.0687	19.7500 
128.045	0.0630	0.1758	1.1221	7.6245	0.2362	11.4587	19.7300 
128.045	0.0894	0.1890	1.0737	7.3553	0.2856	11.7334	19.7500 
128.045	0.0649	0.1626	0.9619	7.0862	0.3076	11.8597	19.7500 
128.045	0.0327	0.0977	0.9160	6.8115	0.3351	11.8927	19.7500 
128.046	-0.0122	0.0571	0.8745	6.6028	0.3790	11.9092	19.7500 
128.052	-0.0063	0.0830	0.8809	6.4325	0.4395	11.9312	19.7400 
128.068	0.0332	0.1455	0.8843	6.3226	0.4834	11.9531	19.7300 
128.092	0.0469	0.1680	0.8926	6.2567	0.5219	11.9476	19.7400 
128.115	0.0322	0.1826	0.9141	6.2347	0.5933	11.8872	19.7300 
128.123	0.0273	0.1797	0.9180	6.2292	0.6647	11.7554	19.7400 
128.142	0.0132	0.1855	0.9395	6.2128	0.7251	11.5302	19.7300 
128.239	-0.0010	0.1787	0.9531	6.1798	0.7800	11.2445	19.7200 
128.253	-0.0146	0.1636	0.9448	6.1359	0.8405	10.9369	19.7200 
128.253	-0.0156	0.1636	0.9321	6.1029	0.8789	10.6512	19.7300 
128.253	-0.0063	0.1743	0.9282	6.1084	0.8734	10.4095	19.7200 
128.253	0.0093	0.2104	0.9424	6.1523	0.8020	10.1788	19.7400 
128.261	0.0259	0.2285	0.9570	6.2183	0.6812	9.9591	19.7300 
128.281	0.0400	0.2339	1.0132	6.2897	0.5438	9.7339	19.7100 
128.301	0.0376	0.2373	1.0513	6.3611	0.4175	9.4757	19.7000 
128.322	0.0049	0.2388	1.0830	6.4655	0.3241	9.1901	19.7000 
128.343	-0.0142	0.2261	1.0981	6.5698	0.2637	8.9264	19.7300 
128.455	-0.0127	0.2500	1.0684	6.6907	0.2087	8.7286	19.6900 
128.469	0.0093	0.2886	1.0596	6.7950	0.1373	8.5529	19.7000 
128.469	0.0952	0.2627	1.1812	6.7621	0.0165	8.2947	19.7000 
128.469	0.1094	0.2603	1.2173	6.7401	-0.2087	7.9926	19.7000 
128.469	0.1030	0.1865	1.2290	6.7511	-0.4999	7.6849	19.7100 
128.469	0.1509	0.1021	1.1978	6.7456	-0.8185	7.4817	19.7200 
128.490	0.1606	0.0044	1.1333	6.7896	-1.1371	7.5037	19.6900 
128.514	0.1812	-0.0068	1.0791	6.8829	-1.4063	7.6630	19.6900 
128.520	0.2261	0.0283	1.0562	6.9543	-1.5601	7.7728	19.6800 
128.539	0.2231	-0.0063	1.0918	6.9324	-1.6150	7.7509	19.6800 
128.560	0.1270	0.0137	1.1567	6.8445	-1.5271	7.4872	19.6700 
128.672	0.0933	0.0288	1.1621	6.7126	-1.3568	7.1466	19.6800 
128.686	0.0864	0.0591	1.0591	6.5369	-1.1646	6.8500	19.6700 
128.686	0.0894	0.0762	0.9775	6.3831	-0.9723	6.5808	19.6800 
128.686	0.1079	0.0630	0.8965	6.2567	-0.7855	6.3831	19.6700 
128.687	0.0938	0.0596	0.8652	6.1633	-0.5988	6.1908	19.6600 
128.687	0.0728	0.0571	0.8525	6.1139	-0.4395	6.0095	19.6700 
128.713	0.0659	0.0483	0.8721	6.0699	-0.3131	5.8392	19.6700 
128.731	0.0884	0.0591	0.9004	6.0370	-0.2142	5.7074	19.6600 
128.840	0.1089	0.0864	0.9146	6.0205	-0.1373	5.6250	19.6600 
128.855	0.1348	0.1211	0.9385	6.0260	-0.0769	5.5865	19.6600 
128.855	0.1401	0.1343	0.9536	6.0315	-0.0385	5.5701	19.6500 
128.855	0.1309	0.1465	0.9756	6.0370	-0.0220	5.5261	19.6500 
128.855	0.1318	0.1353	0.9756	6.0315	-0.0330	5.5042	19.6500 
128.855	0.1421	0.1284	0.9844	6.0150	-0.0604	5.5481	19.6500 
128.863	0.1489	0.1543	1.0073	6.0095	-0.0769	5.6470	19.6500 
128.879	0.1582	0.1880	1.0264	6.0040	-0.0659	5.7788	19.6300 
128.899	0.1528	0.1978	1.0259	6.0095	-0.0330	5.9161	19.6400 
128.923	0.1533	0.1880	1.0356	6.0205	0.0165	6.0754	19.6300 
128.942	0.1548	0.2007	1.0391	6.0425	0.0879	6.2402	19.6300 
129.051	0.1572	0.2373	1.0386	6.0919	0.1648	6.4105	19.6200 
129.064	0.1577	0.2549	1.0449	6.1414	0.2527	6.5753	19.6200 
129.064	0.1685	0.2563	1.0439	6.1963	0.3296	6.7181	19.6200 
129.064	0.1577	0.2095	1.0361	6.2677	0.3845	6.8500	19.6200 
129.064	0.0918	0.0996	1.1362	6.3611	0.4340	7.0093	19.6400 
129.064	0.0723	0.1406	1.2534	6.4764	0.4834	7.1741	19.6200 
129.088	0.0864	0.2134	1.1484	6.7017	0.5109	7.4103	19.6100 
129.096	0.0293	0.1846	1.1353	6.9379	0.5713	7.6575	19.6300 
129.115	-0.0078	0.1519	1.0991	7.1631	0.6372	7.8223	19.6100 
129.136	-0.0913	0.0776	1.0059	7.3663	0.6921	7.8937	19.6200 
129.160	-0.1289	0.0273	1.0518	7.4377	0.7690	7.8717	19.6000 
129.268	-0.1265	0.0791	1.1650	7.3718	0.8899	7.8827	19.6100 
129.282	-0.0703	0.1162	1.1841	7.2125	1.0217	8.0035	19.6100 
129.282	-0.0029	0.1445	1.1201	7.0203	1.1096	8.1683	19.6100 
129.282	0.0171	0.1445	1.0879	6.7786	1.1536	8.2947	19.5900 
129.282	0.0059	0.1040	0.9756	6.5259	1.1646	8.3551	19.6100 
129.288	-0.0122	0.0835	0.8950	6.2952	1.1591	8.3716	19.5900 
129.305	-0.0317	0.0610	0.8379	6.1414	1.1261	8.3716	19.5800 
129.325	-0.0273	0.0684	0.8550	6.0590	1.0547	8.3661	19.5900 
129.335	0.0166	0.1260	0.8877	6.0370	0.9558	8.3551	19.6000 
129.355	0.0249	0.1450	0.8965	6.0754	0.8569	8.3331	19.6100 
129.375	0.0396	0.1665	0.8979	6.1523	0.7745	8.2892	19.6000 
129.479	0.0415	0.1733	0.9258	6.2128	0.7196	8.1903	19.6000 
129.491	0.0112	0.1992	0.9761	6.2512	0.7251	7.9926	19.5800 
129.492	0.0039	0.2114	0.9712	6.2677	0.7855	7.7234	19.5800 
129.492	-0.0215	0.1968	0.9492	6.2457	0.9009	7.4213	19.5700 
129.492	-0.0186	0.1978	0.9458	6.1798	1.0327	7.0972	19.5900 
129.498	-0.0078	0.1982	0.9243	6.0645	1.1371	6.7676	19.5700 
129.515	-0.0049	0.2002	0.9224	5.9326	1.2250	6.4600	19.5800 
129.539	-0.0093	0.1948	0.9912	5.7953	1.2909	6.1798	19.5800 
129.560	-0.0054	0.2119	1.0391	5.6580	1.3184	5.8722	19.5700 
129.583	-0.0010	0.2432	1.0640	5.5756	1.3019	5.5371	19.5500 
129.696	-0.0039	0.2446	1.0635	5.5591	1.2579	5.2130	19.5700 
129.710	-0.0415	0.2354	1.0576	5.6140	1.2085	4.9219	19.5800 
129.710	-0.0493	0.2305	1.0469	5.7239	1.1700	4.6692	19.5700 
129.710	-0.0386	0.2598	1.0391	5.8557	1.1151	4.4330	19.5500 
129.710	-0.0098	0.2695	1.0591	5.9546	1.0327	4.1583	19.5700 
129.710	0.0552	0.2188	1.1763	5.9546	0.8954	3.7958	19.5600 
129.717	0.0635	0.1772	1.1738	5.9821	0.6647	3.3893	19.5600 
129.733	0.0947	0.0566	1.1973	5.9875	0.4120	2.9938	19.5500 
129.849	0.1289	-0.0488	1.1870	6.0425	0.1044	2.7905	19.5400 
129.855	0.1484	-0.0645	1.1689	6.1688	-0.2307	2.7960	19.5500 
129.855	0.1733	-0.0200	1.1387	6.2842	-0.5273	2.8729	19.5400 
129.855	0.1841	0.0010	1.1797	6.2842	-0.7306	2.9224	19.5300 
129.855	0.1299	0.0142	1.2139	6.2128	-0.8459	2.8839	19.5300 
129.855	0.0645	0.0698	1.1216	6.0974	-0.8350	2.7246	19.5500 
129.884	0.0518	0.0845	1.0200	5.9326	-0.7635	2.5433	19.5500 
129.893	0.0820	0.0513	0.8984	5.7623	-0.7196	2.4939	19.5300 
129.911	0.0962	0.0234	0.8389	5.6470	-0.7251	2.5708	19.5300 
129.932	0.1060	0.0361	0.8193	5.5646	-0.7141	2.6312	19.5300 
129.953	0.0967	0.0615	0.8345	5.4987	-0.6812	2.6367	19.5200 
130.063	0.0962	0.0503	0.8901	5.4602	-0.6592	2.6422	19.5100 
130.076	0.1162	0.0454	0.9150	5.4382	-0.6702	2.6477	19.5300 
130.076	0.1299	0.0752	0.9243	5.4272	-0.6866	2.6752	19.5200 
130.076	0.1343	0.1001	0.9360	5.4218	-0.6976	2.7356	19.5100 
130.076	0.1387	0.1147	0.9658	5.3998	-0.7251	2.8400	19.5300 
130.082	0.1460	0.1406	1.0005	5.3668	-0.7416	2.9608	19.5300 
130.100	0.1509	0.1519	1.0200	5.2954	-0.7196	3.0872	19.5100 
130.122	0.1494	0.1611	1.0073	5.2405	-0.6647	3.2355	19.5100 
130.145	0.1504	0.1528	0.9883	5.2075	-0.5933	3.4003	19.5200 
130.151	0.1401	0.1475	0.9878	5.1910	-0.5054	3.5596	19.5200 
130.169	0.1343	0.1426	0.9946	5.2075	-0.3955	3.7244	19.5200 
130.296	0.1353	0.1748	1.0283	5.2734	-0.2856	3.9111	19.5100 
130.302	0.1489	0.2095	1.0586	5.3943	-0.1923	4.1254	19.5200 
130.302	0.1841	0.2656	1.0688	5.5646	-0.1483	4.3506	19.5100 
130.302	0.2080	0.2993	1.0537	5.7678	-0.1373	4.5648	19.4900 
130.302	0.2100	0.2612	1.0229	5.9821	-0.1373	4.7736	19.5100 
130.302	0.1685	0.2173	1.0293	6.1963	-0.0879	4.9768	19.5200 
130.309	0.1079	0.1230	1.0986	6.3831	-0.0220	5.2020	19.5000 
130.331	0.0825	0.0776	1.2085	6.5149	0.0659	5.4547	19.5100 
130.354	0.0889	0.2485	1.1558	6.7676	0.1648	5.7953	19.4900 
130.375	0.0542	0.2241	1.0820	7.0422	0.3021	6.2347	19.4900 
130.397	-0.0273	0.1089	1.0718	7.2400	0.5109	6.6412	19.4900 
130.518	-0.1074	0.0688	1.0649	7.3553	0.7526	6.9159	19.5000 
130.524	-0.1992	-0.0127	1.1138	7.3553	1.0052	7.0807	19.5000 
130.524	-0.2109	0.0278	1.2202	7.2894	1.2030	7.3279	19.5000 
130.524	-0.0693	0.1196	1.2578	7.1356	1.3129	7.7344	19.4900 
130.524	-0.0117	0.1528	1.1948	6.9543	1.3843	8.1738	19.4900 
130.524	0.0083	0.1675	1.0488	6.7731	1.4282	8.5474	19.4800 
130.530	0.0083	0.1611	0.9580	6.5973	1.4447	8.8495	19.4900 
130.555	0.0112	0.1250	0.8130	6.4600	1.4063	9.1132	19.4800 
130.578	0.0112	0.0874	0.7554	6.3446	1.3074	9.3384	19.4900 
130.680	-0.0024	0.0527	0.7944	6.2018	1.2085	9.5032	19.4700 
130.694	-0.0034	0.0732	0.8389	6.0754	1.1096	9.6075	19.4700 
130.694	0.0190	0.1533	0.8726	5.9766	1.0382	9.6570	19.4800 
130.694	0.0469	0.1846	0.8784	5.9326	0.9943	9.7119	19.4700 
130.695	0.0654	0.1953	0.9043	5.8997	0.9448	9.7394	19.4800 
130.703	0.0464	0.2041	0.9316	5.8832	0.9448	9.6954	19.4900 
130.717	0.0190	0.2070	0.9868	5.8502	0.9778	9.5746	19.4600 
130.738	0.0049	0.2007	1.0029	5.7733	1.0547	9.4263	19.4600 
130.760	-0.0078	0.2163	0.9937	5.6744	1.1700	9.2560	19.4500 
130.777	-0.0049	0.2354	0.9834	5.5646	1.2909	9.0747	19.4600 
130.799	-0.0029	0.2285	0.9653	5.4822	1.3458	8.8770	19.4500 
130.915	-0.0073	0.2192	0.9849	5.4272	1.3403	8.6627	19.4400 
130.929	-0.0078	0.2271	1.0127	5.4053	1.2744	8.4430	19.4500 
130.929	-0.0059	0.2109	1.0557	5.4108	1.1865	8.2343	19.4500 
130.930	-0.0264	0.1865	1.1147	5.4272	1.1151	8.0200	19.4400 
130.930	-0.0620	0.2129	1.1270	5.4712	1.0931	7.7783	19.4500 
130.930	-0.0796	0.2817	1.0581	5.5646	1.0876	7.5201	19.4300 
130.937	-0.0381	0.2993	1.0591	5.6635	1.0217	7.2510	19.4300 
130.950	0.1147	0.1836	1.1455	5.7294	0.7141	7.0258	19.4300 
130.974	0.1196	0.1079	1.1343	5.8337	0.1813	6.8060	19.4300 
131.074	0.0771	0.0288	1.2061	5.9381	-0.2197	6.4709	19.4400 
131.086	0.1523	-0.1323	1.2666	6.0205	-0.5713	6.3171	19.4500 
131.086	0.2197	-0.1426	1.3130	6.1743	-0.9338	6.3776	19.4300 
131.086	0.2412	0.1265	1.2173	6.3831	-1.1920	6.3831	19.4300 
131.086	0.2632	0.1167	1.1421	6.4325	-1.3348	6.3116	19.4400 
131.092	0.1455	0.0156	1.1880	6.2897	-1.2909	6.0205	19.4200 
131.108	0.0459	0.0322	1.1528	6.1743	-1.0657	5.5261	19.4100 
131.131	-0.0083	0.0596	0.9219	6.1523	-0.8020	5.0702	19.4200 
131.153	0.0273	0.0156	0.8091	6.1194	-0.6262	4.8450	19.4100 
131.175	0.1094	-0.0850	0.7534	6.0535	-0.6152	4.8560	19.4100 
131.288	0.0879	-0.0430	0.8042	5.9546	-0.5219	4.7571	19.4100 
131.302	0.0752	0.0610	0.8599	5.9381	-0.3790	4.5813	19.4100 
131.303	0.1162	0.1108	0.8853	6.0315	-0.3241	4.4934	19.4000 
131.303	0.1719	0.1641	0.8833	6.2073	-0.3845	4.4989	19.4100 
131.303	0.1875	0.1587	0.9082	6.3501	-0.4449	4.5264	19.4000 
131.303	0.1475	0.1167	0.9961	6.3556	-0.3900	4.4934	19.4000 
131.311	0.1265	0.1064	1.0146	6.3007	-0.2966	4.4769	19.4000 
131.324	0.1294	0.1377	1.0186	6.2677	-0.1978	4.5428	19.4100 
131.348	0.1538	0.1592	1.0244	6.2567	-0.1318	4.6747	19.4000 
131.368	0.1611	0.1631	1.0083	6.2512	-0.0769	4.8285	19.4100 
131.394	0.1440	0.1543	1.0269	6.2018	0.0275	4.9823	19.4000 
131.506	0.1270	0.1772	1.0361	6.1633	0.1923	5.1526	19.4000 
131.519	0.1382	0.1787	1.0337	6.1578	0.3406	5.3723	19.4100 
131.519	0.1387	0.1836	1.0303	6.1908	0.4669	5.6525	19.4000 
131.519	0.1406	0.2183	1.0308	6.2732	0.5878	5.9491	19.3900 
131.519	0.1724	0.2744	1.0024	6.4160	0.6592	6.2457	19.4100 
131.519	0.1787	0.2612	1.0088	6.5698	0.7196	6.5259	19.4000 
131.528	0.1279	0.1768	0.9985	6.7291	0.7800	6.8170	19.4000 
131.545	0.0513	0.0903	1.0366	6.9049	0.8954	7.1301	19.3800 
131.568	-0.0151	0.0503	1.2002	7.0862	1.0162	7.4707	19.4000 
131.587	-0.0034	0.1831	1.2148	7.3773	1.0822	7.8772	19.3900 
131.607	0.0220	0.1821	1.1611	7.7344	1.0767	8.3771	19.3900 
131.714	-0.0127	0.2065	1.1592	8.0365	1.0822	8.8385	19.4000 
131.730	-0.1216	0.1382	1.0913	8.2452	1.1536	9.1956	19.3600 
131.730	-0.1650	0.0796	1.0977	8.3057	1.3348	9.4153	19.3700 
131.730	-0.1401	0.0571	1.1924	8.2343	1.5326	9.6515	19.3900 
131.730	-0.0713	0.1196	1.1826	8.1079	1.6534	9.9811	19.4000 
131.730	0.0093	0.1719	1.0913	7.9596	1.6864	10.3766	19.3700 
131.749	0.0063	0.1704	1.0156	7.7838	1.6974	10.7062	19.3800 
131.774	-0.0098	0.1401	0.9150	7.5806	1.6809	10.9259	19.3900 
131.780	-0.0073	0.1128	0.8457	7.3828	1.6260	11.0962	19.3800 
131.800	-0.0161	0.1196	0.8027	7.2235	1.5161	11.2280	19.3700 
131.820	-0.0176	0.1182	0.8237	7.1082	1.4282	11.3214	19.3700 
131.931	-0.0063	0.1299	0.8706	7.0422	1.3348	11.3983	19.3800 
131.945	0.0000	0.1289	0.8926	7.0093	1.2524	11.4423	19.3900 
131.945	0.0088	0.1758	0.9189	6.9598	1.2250	11.4038	19.3700 
131.945	0.0132	0.2080	0.9385	6.9159	1.2195	11.3104	19.3700 
131.945	0.0093	0.2114	0.9507	6.8170	1.2415	11.1182	19.3600 
131.952	-0.0010	0.2041	0.9365	6.7017	1.2854	10.8600	19.3600 
131.967	-0.0107	0.1909	0.9355	6.5753	1.3403	10.5963	19.3700 
131.989	-0.0210	0.1802	0.9546	6.4490	1.3678	10.3711	19.3600 
132.093	-0.0112	0.1938	0.9814	6.3501	1.3458	10.2008	19.3700 
132.106	0.0186	0.2402	0.9683	6.2567	1.2854	9.9921	19.3600 
132.106	0.0293	0.2798	0.9678	6.1798	1.2030	9.7229	19.3500 
132.106	0.0356	0.2837	1.0176	6.1029	1.1151	9.4208	19.3500 
132.106	0.0308	0.2666	1.0498	6.0590	0.9943	9.1022	19.3500 
132.106	0.0015	0.2324	1.0645	6.0864	0.8624	8.7726	19.3800 
132.128	-0.0093	0.2227	1.0781	6.1633	0.7471	8.4650	19.3600 
132.149	-0.0190	0.2393	1.0786	6.3116	0.6372	8.1958	19.3400 
132.158	0.0073	0.2622	1.0864	6.4819	0.4999	7.9541	19.3400 
132.177	0.0874	0.2261	1.2188	6.6138	0.2856	7.7399	19.3500 
132.197	0.1060	0.2485	1.2710	6.7621	0.0165	7.5256	19.3500 
132.304	0.1494	0.2173	1.2544	6.8884	-0.2527	7.2894	19.3500 
132.317	0.1738	0.1392	1.1997	7.0148	-0.5054	7.1246	19.3400 
132.317	0.1650	0.0186	1.1182	7.1521	-0.7471	7.1521	19.3400 
132.317	0.1650	0.0322	1.0918	7.2400	-0.8679	7.1851	19.3300 
132.317	0.1895	0.0132	1.0693	7.1796	-0.9009	7.0972	19.3300 
132.326	0.1543	-0.0347	1.1118	7.0093	-0.8514	6.8829	19.3400 
132.344	0.0542	-0.0210	1.1616	6.7950	-0.6537	6.4929	19.3100 
132.363	0.0049	0.0132	1.1235	6.5753	-0.3735	6.0809	19.3200 
132.387	0.0156	0.0649	1.0161	6.3776	-0.0824	5.7458	19.3300 
132.408	0.0645	0.0874	0.9331	6.2183	0.1373	5.5151	19.3300 
132.513	0.0923	0.1108	0.8550	6.1084	0.3186	5.3009	19.3200 
132.526	0.0884	0.1162	0.8218	6.0370	0.4559	5.0427	19.3100 
132.526	0.0776	0.0742	0.8496	5.9656	0.5438	4.7681	19.3100 
132.526	0.0737	0.0381	0.8774	5.8612	0.5823	4.5044	19.3000 
132.526	0.0776	0.0415	0.8984	5.7788	0.5933	4.2902	19.3000 
132.527	0.0830	0.0703	0.9136	5.7294	0.6097	4.1254	19.3100 
132.548	0.1094	0.1099	0.9429	5.6909	0.6262	4.0320	19.3000 
132.557	0.1270	0.1162	0.9746	5.6415	0.6537	3.9825	19.2800 
132.576	0.1416	0.1187	0.9971	5.5646	0.6757	3.9606	19.2900 
132.595	0.1362	0.1167	1.0220	5.4822	0.6921	3.9606	19.2900 
132.617	0.1279	0.1074	1.0425	5.4218	0.7251	3.9880	19.3000 
132.744	0.1147	0.1255	1.0361	5.4108	0.7690	4.0430	19.2800 
132.750	0.1094	0.1792	1.0103	5.4987	0.8295	4.1473	19.2800 
132.750	0.1221	0.2070	0.9985	5.6415	0.8789	4.3011	19.2800 
132.750	0.1353	0.2314	1.0220	5.7898	0.9393	4.4550	19.2900 
132.750	0.1367	0.2539	1.0029	5.9381	0.9943	4.5758	19.2700 
132.750	0.1323	0.1997	1.0088	6.1029	1.0547	4.6527	19.2900 
132.757	0.1025	0.1421	1.0347	6.2952	1.1041	4.7241	19.2900 
132.779	0.0239	0.0542	1.1631	6.5808	1.1261	4.8340	19.3000 
132.803	-0.0107	0.1274	1.2646	6.9269	1.1261	5.0043	19.2800 
132.903	-0.0059	0.2017	1.2637	7.3883	1.0931	5.2679	19.2900 
132.916	-0.0532	0.2139	1.2266	7.7563	1.1426	5.4767	19.2700 
132.917	-0.1011	0.1797	1.1040	8.0804	1.2305	5.6140	19.2800 
132.917	-0.1484	0.0894	1.0361	8.2672	1.3019	5.6635	19.2800 
132.917	-0.1563	0.0391	1.0625	8.3221	1.2634	5.7458	19.2800 
132.924	-0.0972	0.1021	1.1665	8.3112	1.1755	5.9875	19.2700 
132.939	-0.0161	0.1753	1.1216	8.2672	1.0437	6.3556	19.2800 
132.960	0.0747	0.1689	1.1025	8.0859	0.9009	6.7126	19.2900 
132.983	0.0923	0.1592	1.0566	7.8442	0.7581	6.9873	19.2700 
133.004	0.0493	0.1611	0.9116	7.6135	0.6592	7.1301	19.2800 
133.117	0.0161	0.1484	0.8428	7.3938	0.6042	7.1741	19.2700 
133.131	-0.0112	0.1069	0.8252	7.1686	0.5713	7.1851	19.2700 
133.131	-0.0088	0.1055	0.8354	7.0038	0.5219	7.2345	19.2800 
133.131	0.0088	0.1436	0.8506	6.9269	0.4340	7.3334	19.2600 
133.131	0.0249	0.1650	0.8784	6.8610	0.3571	7.4268	19.2700 
133.131	0.0347	0.1748	0.9097	6.7786	0.3076	7.4542	19.2600 
133.138	0.0220	0.1792	0.9263	6.7017	0.2747	7.4158	19.2500 
133.154	-0.0078	0.1704	0.9443	6.6248	0.2582	7.3499	19.2400 
133.174	-0.0156	0.1694	0.9473	6.5479	0.2637	7.2565	19.2500 
133.196	-0.0107	0.1567	0.9702	6.4764	0.2802	7.1796	19.2500 
133.219	-0.0244	0.1929	0.9795	6.4655	0.2856	7.1191	19.2500 
133.328	-0.0103	0.2485	0.9639	6.4984	0.2802	7.0148	19.2600 
133.343	-0.0005	0.2529	0.9717	6.5369	0.2472	6.8280	19.2600 
133.343	-0.0054	0.2227	1.0337	6.6083	0.1483	6.5918	19.2500 
133.343	-0.0200	0.2188	1.0503	6.7511	-0.0165	6.3556	19.2600 
133.343	-0.0474	0.2261	1.0654	6.9543	-0.2032	6.1359	19.2500 
133.343	-0.0493	0.2329	1.0664	7.1906	-0.3955	5.9766	19.2500 
133.350	0.0103	0.2593	1.0991	7.4158	-0.5933	5.8667	19.2500 
133.370	0.1079	0.2778	1.1660	7.5916	-0.8624	5.7898	19.2300 
133.391	0.2090	0.2651	1.1870	7.7454	-1.2360	5.6744	19.2400 
133.410	0.2349	0.1938	1.2524	7.8387	-1.6095	5.4492	19.2400 
133.431	0.2515	0.1226	1.2280	7.9651	-1.9775	5.2130	19.2600 
133.555	0.2446	0.1094	1.1499	8.1573	-2.3071	5.0647	19.2700 
133.561	0.2583	0.0698	1.0581	8.3167	-2.5598	4.9878	19.2500 
133.561	0.2813	-0.0068	1.0469	8.3496	-2.7521	4.9768	19.2500 
133.561	0.1733	-0.0098	1.1714	8.2892	-2.7960	4.8615	19.2600 
133.561	0.1118	0.0381	1.1914	8.2288	-2.7246	4.6417	19.2600 
133.562	0.0962	0.0859	1.1040	8.0804	-2.5598	4.4055	19.2500 
133.569	0.1079	0.0903	0.9961	7.8827	-2.3126	4.1858	19.2500 
133.594	0.1289	0.0620	0.8486	7.6465	-2.0435	4.0155	19.2300 
133.720	0.1313	0.0664	0.8042	7.4268	-1.7963	3.8892	19.2200 
133.726	0.1143	0.0679	0.8091	7.2455	-1.5710	3.7958	19.2200 
133.726	0.1055	0.0845	0.8174	7.0752	-1.3403	3.6804	19.2300 
133.726	0.1226	0.0698	0.8633	6.9324	-1.1426	3.5870	19.2200 
133.726	0.1333	0.0562	0.9077	6.8335	-0.9778	3.5760	19.2100 
133.726	0.1523	0.0747	0.9580	6.7896	-0.8514	3.6200	19.1800 
133.732	0.1631	0.1094	0.9780	6.7731	-0.7471	3.7244	19.2000 
133.756	0.1729	0.1362	1.0039	6.7676	-0.6482	3.8617	19.2000 
133.779	0.1865	0.1597	1.0464	6.7621	-0.5548	4.0320	19.1900 
133.788	0.1826	0.1743	1.0400	6.7786	-0.4724	4.2023	19.1800 
133.810	0.1563	0.1914	1.0039	6.8060	-0.3790	4.3671	19.1700 
133.828	0.1475	0.2090	0.9814	6.8555	-0.2692	4.5428	19.1900 
133.931	0.1470	0.2173	0.9819	6.9159	-0.1483	4.7516	19.1700 
133.945	0.1465	0.2217	0.9946	6.9708	-0.0110	4.9878	19.1600 
133.945	0.1475	0.2524	1.0176	7.0477	0.1373	5.2185	19.1800 
133.945	0.1563	0.2744	1.0181	7.1521	0.2856	5.4327	19.1700 
133.945	0.1675	0.2798	1.0171	7.2675	0.4175	5.6085	19.1600 
133.951	0.1611	0.2393	1.0020	7.3828	0.5328	5.7678	19.1600 
133.967	0.1050	0.1460	1.0269	7.4982	0.6317	5.9711	19.1500 
133.989	0.0552	0.1133	1.1104	7.6465	0.7361	6.2347	19.1500 
134.012	0.0425	0.2212	1.2881	7.8662	0.8405	6.5808	19.1500 
134.033	0.0703	0.2939	1.2642	8.1464	0.9338	6.9763	19.1300 
134.144	0.0366	0.3003	1.1714	8.3331	1.0986	7.2510	19.1300 
134.159	-0.0151	0.2207	1.0283	8.4979	1.3074	7.4158	19.1300 
134.159	-0.1294	0.0044	0.9634	8.5364	1.5216	7.4762	19.1300 
134.159	-0.1870	-0.0659	1.0112	8.5364	1.6370	7.5641	19.1400 
134.159	-0.1709	0.0176	1.1362	8.4705	1.7029	7.8387	19.1300 
134.159	-0.1006	0.1162	1.1592	8.3441	1.7358	8.3167	19.1400 
134.166	0.0215	0.1953	1.1245	8.1628	1.7303	8.8879	19.1300 
134.186	0.0703	0.2026	1.0713	7.9431	1.6919	9.3768	19.1300 
134.206	0.0830	0.1792	0.9507	7.6904	1.6260	9.6735	19.1300 
134.227	0.0498	0.1597	0.8657	7.4707	1.5271	9.8163	19.1200 
134.251	-0.0049	0.1138	0.8408	7.2729	1.4392	9.8438	19.1300 
134.360	-0.0205	0.0908	0.8638	7.0972	1.3623	9.8163	19.1300 
134.374	-0.0254	0.1157	0.8760	6.9983	1.2854	9.7723	19.1300 
134.374	-0.0137	0.1406	0.8789	6.9818	1.2030	9.7559	19.1200 
134.375	0.0127	0.1768	0.8970	6.9928	1.1371	9.7394	19.1100 
134.375	0.0190	0.1963	0.9019	7.0038	1.0931	9.6515	19.1200 
134.375	0.0063	0.2085	0.9297	6.9873	1.1041	9.4702	19.1100 
134.396	-0.0083	0.2002	0.9556	6.9324	1.1646	9.2065	19.1000 
134.405	-0.0176	0.1812	0.9629	6.8280	1.2524	8.9044	19.1000 
134.425	-0.0244	0.1733	0.9639	6.7017	1.3733	8.5913	19.0900 
134.444	-0.0371	0.1997	1.0034	6.5753	1.5326	8.2288	19.1100 
134.468	-0.0347	0.2217	1.0146	6.4764	1.6754	7.8113	19.1000 
134.574	-0.0234	0.2285	1.0264	6.4709	1.7029	7.3718	19.1000 
134.589	-0.0229	0.2588	1.0415	6.5588	1.6315	6.9543	19.1100 
134.589	0.0049	0.2905	1.0127	6.7566	1.4722	6.5643	19.1000 
134.590	-0.0044	0.2783	1.0049	7.0258	1.2964	6.2238	19.1000 
134.590	-0.0083	0.2832	1.0117	7.3114	1.1206	5.8722	19.1000 
134.597	0.0156	0.2754	1.0527	7.5696	0.9448	5.4877	19.0800 
134.612	0.0884	0.2363	1.1738	7.7344	0.6702	5.0372	19.1100 
134.736	0.0908	0.1870	1.2900	7.8772	0.2856	4.5428	19.1100 
134.742	0.1089	0.1392	1.3643	8.0475	-0.1758	4.0540	19.1000 
134.743	0.1294	0.1318	1.1855	8.3386	-0.6592	3.7299	19.1100 
134.743	0.1504	0.1475	1.0552	8.6627	-1.0052	3.5870	19.1000 
134.743	0.2231	0.0835	0.9688	8.8824	-1.2195	3.5815	19.1100 
134.743	0.2593	0.0059	1.0303	8.8879	-1.3403	3.5760	19.1100 
134.743	0.1479	0.0723	1.1362	8.8605	-1.3293	3.3069	19.1200 
134.775	0.1045	0.1021	1.1797	8.7396	-1.1975	2.8729	19.1200 
134.783	0.0898	0.0825	1.1372	8.4814	-0.9998	2.4335	19.1100 
134.802	0.0703	0.0854	1.0317	8.2123	-0.7361	2.0435	19.1100 
134.822	0.1016	0.0693	0.8940	7.9486	-0.4614	1.7853	19.1100 
134.845	0.1040	0.0771	0.8335	7.7344	-0.2142	1.6315	19.1200 
134.963	0.0854	0.0942	0.8345	7.5531	0.0055	1.4886	19.1200 
134.976	0.0767	0.1050	0.8638	7.3938	0.1978	1.3074	19.1200 
134.976	0.0806	0.0708	0.9087	7.2455	0.3516	1.1371	19.1100 
134.977	0.0820	0.0581	0.9136	7.1521	0.4614	1.0382	19.1200 
134.977	0.0972	0.1021	0.9116	7.1191	0.5273	1.0492	19.1200 
134.977	0.1128	0.1563	0.9160	7.1466	0.5878	1.1261	19.1200 
134.983	0.1206	0.1948	0.9409	7.1960	0.6427	1.2195	19.1100 
135.002	0.1235	0.1978	0.9609	7.2400	0.6702	1.3129	19.1100 
135.021	0.1221	0.1836	1.0005	7.2620	0.6812	1.4282	19.1100 
135.040	0.1196	0.1929	1.0015	7.2839	0.6976	1.5656	19.1200 
135.064	0.1240	0.2002	1.0010	7.3114	0.7251	1.7688	19.1200 
135.174	0.1426	0.1992	1.0342	7.3499	0.7526	2.0490	19.1100 
135.187	0.1636	0.2334	1.0557	7.4268	0.7800	2.3895	19.1300 
135.187	0.1729	0.2646	1.0469	7.5586	0.8075	2.7631	19.1200 
135.187	0.1831	0.3120	1.0581	7.7124	0.8569	3.1366	19.1200 
135.188	0.1812	0.3110	1.0532	7.8607	0.9448	3.4882	19.1100 
135.188	0.1299	0.2070	1.0708	7.9871	1.0822	3.8232	19.1200 
135.207	0.0557	0.1040	1.1733	8.1024	1.2524	4.1913	19.1100 
135.232	0.0005	0.2139	1.3701	8.2617	1.4612	4.5813	19.1200 
135.240	0.0420	0.3066	1.2749	8.5638	1.6699	5.0537	19.1200 
135.260	0.0117	0.2925	1.1167	8.8165	1.9006	5.5646	19.1100 
135.280	-0.0327	0.2139	0.9863	9.0417	2.1368	6.0645	19.1200 
135.384	-0.1333	0.0415	0.9014	9.1901	2.3346	6.4929	19.1300 
135.404	-0.2026	-0.0547	0.9780	9.2120	2.5214	6.8390	19.1200 
135.405	-0.2119	0.0249	1.1821	9.0967	2.7026	7.2180	19.1100 
135.405	-0.1479	0.1392	1.2046	8.8934	2.8564	7.7179	19.1300 
135.405	-0.0386	0.1777	1.1465	8.6243	2.9553	8.2617	19.1100 
135.420	0.0005	0.1904	1.0693	8.3221	3.0157	8.6957	19.1200 
135.427	0.0103	0.1533	0.9272	8.0585	2.9993	8.9539	19.1200 
135.546	-0.0278	0.1089	0.8662	7.8442	2.9279	9.0912	19.1300 
135.552	-0.0801	0.0879	0.8252	7.7179	2.8400	9.1516	19.1300 
135.552	-0.0884	0.0967	0.8159	7.6794	2.7411	9.2065	19.1100 
135.552	-0.0547	0.1191	0.8057	7.6685	2.6147	9.2725	19.1300 
135.552	-0.0205	0.1357	0.7720	7.6685	2.4719	9.3054	19.1200 
135.552	-0.0137	0.1479	0.7793	7.6520	2.3346	9.2560	19.1300 
135.558	-0.0142	0.1392	0.8081	7.6300	2.1918	9.1571	19.1300 
135.582	-0.0142	0.1235	0.8691	7.6245	2.0215	9.0363	19.1100 
135.603	-0.0239	0.1646	1.0308	7.6520	1.8457	8.9319	19.1300 
135.628	-0.0215	0.2534	1.0864	7.6959	1.6864	8.8440	19.1100 
135.650	0.0225	0.3643	1.0664	7.6685	1.5930	8.6902	19.1300 
135.759	0.0615	0.3804	0.9883	7.5366	1.5381	8.4155	19.1100 
135.771	0.0591	0.3042	0.9502	7.3718	1.5051	8.0695	19.1100 
135.771	0.0313	0.2524	0.9404	7.2290	1.4337	7.6685	19.0900 
135.771	0.0049	0.2007	1.0015	7.1246	1.2854	7.3114	19.1000 
135.771	-0.0083	0.2280	1.0674	7.0807	1.0986	7.0532	19.1000 
135.771	0.0386	0.2793	1.1113	7.0587	0.9338	6.8829	19.1000 
135.789	0.0522	0.3076	1.1045	7.0203	0.8240	6.7401	19.1000 
135.804	0.0654	0.3130	1.0825	7.0038	0.7361	6.5863	19.1000 
135.825	0.0728	0.2915	1.1030	6.9873	0.6482	6.3776	19.1000 
135.847	0.0962	0.2153	1.2661	6.9434	0.4999	6.1194	19.1000 
135.856	0.0898	0.2183	1.3340	6.9434	0.2911	5.8502	19.1000 
135.976	0.0967	0.1787	1.2959	6.9928	0.0714	5.5865	19.1100 
135.990	0.1138	0.1479	1.1748	7.1027	-0.1263	5.4218	19.1100 
135.990	0.1021	0.0469	0.9473	7.3169	-0.3021	5.4437	19.1100 
135.991	0.1025	-0.0249	0.8970	7.5916	-0.4395	5.6305	19.1000 
135.991	0.1240	-0.0483	0.9492	7.7838	-0.4395	5.7898	19.1000 
135.991	0.1260	-0.0483	1.0483	7.8827	-0.3625	5.7513	19.1000 
135.997	0.0986	-0.0151	1.1812	7.8882	-0.2252	5.5756	19.1000 
136.016	0.0581	0.0356	1.2310	7.8607	-0.0220	5.3723	19.0900 
136.035	0.0581	0.1191	1.1074	7.8607	0.1978	5.2460	19.0900 
136.056	0.0747	0.1494	0.9951	7.8552	0.4230	5.1526	19.0900 
136.078	0.0996	0.1489	0.9033	7.8058	0.6427	5.0372	19.0800 
136.193	0.0845	0.1411	0.8809	7.7124	0.8350	4.8395	19.0700 
136.207	0.0454	0.1128	0.8701	7.6190	0.9668	4.5593	19.0800 
136.207	0.0366	0.0796	0.8794	7.5311	1.0437	4.2792	19.0900 
136.207	0.0488	0.0547	0.8994	7.4542	1.0712	4.0814	19.0900 
136.207	0.0698	0.0830	0.8960	7.4158	1.0986	3.9661	19.0600 
136.207	0.0986	0.1353	0.9043	7.3993	1.1316	3.9221	19.0800 
136.213	0.1143	0.1533	0.9258	7.3718	1.1536	3.9331	19.0700 
136.233	0.1191	0.1753	0.9629	7.3114	1.1700	3.9551	19.0600 
136.352	0.1187	0.1616	0.9839	7.2125	1.2140	3.9716	19.0700 
136.358	0.1128	0.1523	1.0122	7.0697	1.2689	3.9990	19.0600 
136.358	0.1113	0.1558	1.0337	6.9434	1.3239	4.0814	19.0700 
136.358	0.1064	0.1797	1.0205	6.8829	1.3788	4.2188	19.0700 
136.358	0.1074	0.1841	1.0161	6.8500	1.4392	4.4000	19.0800 
136.358	0.1025	0.2119	1.0156	6.8829	1.4941	4.6143	19.0500 
136.373	0.1016	0.2427	1.0161	6.9543	1.5216	4.8450	19.0600 
136.392	0.1396	0.3071	0.9883	7.0697	1.5106	5.0427	19.0600 
136.412	0.1572	0.2866	0.9897	7.1686	1.4832	5.1910	19.0600 
136.432	0.1284	0.2202	0.9839	7.3224	1.4172	5.3119	19.0700 
136.454	0.0786	0.1733	0.9966	7.5586	1.3184	5.4602	19.0700 
136.565	0.0200	0.1167	1.1938	7.8278	1.2305	5.6964	19.0700 
136.578	0.0435	0.2432	1.2568	8.1464	1.1536	6.0095	19.0700 
136.579	0.0806	0.2852	1.1782	8.5199	1.0767	6.4380	19.0800 
136.579	0.0195	0.2617	1.2007	8.7726	1.0657	6.7950	19.0700 
136.579	-0.0225	0.2490	1.1294	9.0033	1.0547	7.0862	19.0800 
136.585	-0.0957	0.1250	1.0742	9.0308	1.1261	7.1906	19.0800 
136.599	-0.1353	0.0244	1.0991	8.8879	1.1865	7.2839	19.0800 
136.622	-0.1426	0.0547	1.1440	8.6902	1.2579	7.4927	19.0700 
136.631	-0.0874	0.0928	1.1411	8.3826	1.3348	7.8497	19.0800 
136.651	0.0190	0.1460	1.1006	8.0365	1.3733	8.2837	19.0800 
136.671	0.0562	0.1660	1.0083	7.6959	1.3403	8.6737	19.0800 
136.779	0.0322	0.1450	0.8994	7.3938	1.3019	8.9209	19.0700 
136.794	-0.0024	0.1094	0.8521	7.1246	1.2469	9.0637	19.0800 
136.794	-0.0229	0.0684	0.8350	6.9049	1.1591	9.1901	19.0800 
136.794	-0.0254	0.0908	0.8579	6.7676	1.0382	9.3219	19.0900 
136.794	0.0156	0.1323	0.8989	6.6797	0.9064	9.4647	19.0900 
136.803	0.0298	0.1670	0.9126	6.6302	0.7910	9.5911	19.0800 
136.818	0.0420	0.1890	0.9243	6.6028	0.7196	9.6460	19.0800 
136.831	0.0288	0.1919	0.9312	6.5643	0.6866	9.6350	19.0900 
136.850	0.0049	0.1787	0.9399	6.5149	0.6976	9.5361	19.0700 
136.871	-0.0054	0.1602	0.9502	6.4545	0.7141	9.4043	19.0900 
136.989	-0.0273	0.1606	0.9644	6.4050	0.7251	9.2834	19.1000 
136.997	-0.0210	0.1733	0.9570	6.3776	0.7251	9.1901	19.0900 
136.997	-0.0083	0.2148	0.9351	6.3831	0.7031	9.1077	19.1000 
136.997	0.0044	0.2324	0.9634	6.3885	0.6592	8.9923	19.1000 
136.997	0.0264	0.2495	1.0142	6.4050	0.5548	8.8000	19.0900 
136.997	0.0205	0.2402	1.0303	6.4490	0.4285	8.5419	19.0800 
137.008	-0.0176	0.1992	1.0605	6.5204	0.3131	8.2562	19.1000 
137.029	-0.0308	0.1855	1.0737	6.6138	0.2087	8.0090	19.0800 
137.049	-0.0283	0.2666	1.0298	6.7731	0.1154	7.8278	19.0800 
137.070	0.0112	0.2974	1.0396	6.9214	0.0220	7.6355	19.0900 
137.090	0.1113	0.2856	1.1494	6.9324	-0.0769	7.2675	19.0900 
137.208	0.1396	0.2524	1.0986	7.0203	-0.2966	6.7401	19.0800 
137.227	0.0996	0.0972	1.1328	7.1521	-0.5548	6.0974	19.0800 
137.227	0.1338	-0.0181	1.1919	7.3883	-0.9283	5.5975	19.0900 
137.227	0.2065	-0.0229	1.2075	7.7728	-1.4392	5.4272	19.0800 
137.227	0.2437	0.0674	1.1914	8.1738	-1.9281	5.4987	19.0900 
137.227	0.3257	0.1060	1.2036	8.3276	-2.3456	5.5701	19.0800 
137.246	0.2900	0.1001	1.2847	8.2562	-2.5653	5.5536	19.0700 
137.253	0.1602	0.1611	1.2461	8.1354	-2.5873	5.3888	19.0800 
137.271	0.1123	0.1582	1.0752	8.0035	-2.5269	5.1801	19.0900 
137.293	0.1006	0.0928	0.8423	7.7893	-2.3950	5.0592	19.0700 
137.314	0.0962	0.0366	0.7729	7.5311	-2.2357	5.0262	19.0900 
137.418	0.1040	-0.0054	0.7397	7.2729	-2.0984	5.0317	19.0900 
137.433	0.1006	0.0034	0.7939	6.9873	-1.9501	5.0208	19.0900 
137.433	0.0996	0.0293	0.8755	6.7291	-1.7688	5.0043	19.0700 
137.433	0.1089	0.0474	0.9063	6.5753	-1.6150	5.0317	19.0800 
137.433	0.1392	0.0752	0.9429	6.5039	-1.4996	5.1526	19.0900 
137.441	0.1606	0.0962	0.9604	6.4874	-1.4392	5.3558	19.0900 
137.453	0.1768	0.1230	0.9619	6.5204	-1.4337	5.5975	19.0800 
137.476	0.1816	0.1660	0.9941	6.5479	-1.4502	5.8502	19.0800 
137.584	0.1768	0.1577	1.0151	6.5369	-1.4392	6.1139	19.0900 
137.602	0.1602	0.1509	1.0039	6.5094	-1.3788	6.3940	19.0900 
137.602	0.1626	0.1519	0.9854	6.4819	-1.2909	6.7072	19.0800 
137.602	0.1694	0.1436	0.9956	6.4709	-1.1755	7.0697	19.0800 
137.602	0.1748	0.1616	1.0117	6.4984	-1.0492	7.4377	19.0900 
137.602	0.1699	0.2222	1.0361	6.6028	-0.9174	7.8003	19.0800 
137.622	0.1841	0.2617	1.0254	6.7786	-0.7965	8.1573	19.0800 
137.628	0.2021	0.2886	1.0220	6.9763	-0.6866	8.4814	19.0700 
137.646	0.2114	0.2764	1.0078	7.1851	-0.5933	8.7781	19.1000 
137.666	0.1729	0.1870	1.0449	7.3773	-0.4944	9.0747	19.0800 
137.689	0.1255	0.1353	1.1084	7.5751	-0.3790	9.4208	19.0800 
137.816	0.0669	0.1880	1.3203	7.8003	-0.2142	9.7723	19.0900 
137.821	0.0991	0.2876	1.2915	8.0750	-0.0824	10.1074	19.0900 
137.821	0.0557	0.3135	1.1665	8.3221	0.0934	10.3436	19.0900 
137.821	0.0034	0.2549	1.0391	8.5693	0.3021	10.4919	19.0800 
137.821	-0.0981	0.0640	0.9702	8.7671	0.4779	10.6238	19.0800 
137.821	-0.1353	-0.0210	1.0308	8.8879	0.5328	10.7941	19.0700 
137.827	-0.1099	0.0635	1.1411	8.9484	0.5109	11.0907	19.0800 
137.852	-0.0522	0.1538	1.1650	8.9099	0.4999	11.5137	19.0900 
137.876	0.0400	0.2070	1.1123	8.7726	0.4999	11.9916	19.0800 
137.984	0.0806	0.2056	1.0527	8.5638	0.4834	12.3706	19.0700 
138.000	0.0718	0.1626	0.9375	8.3331	0.4395	12.6013	19.0800 
138.000	0.0454	0.1333	0.8672	8.1189	0.3790	12.7606	19.0800 
138.000	0.0005	0.1108	0.8350	7.9596	0.3241	12.9034	19.0900 
138.000	0.0015	0.1045	0.8428	7.8497	0.2582	13.0518	19.0800 
138.000	0.0073	0.1294	0.8701	7.7838	0.1813	13.2111	19.0900 
138.008	0.0166	0.1665	0.8765	7.7509	0.1318	13.3374	19.0900 
138.027	0.0376	0.1963	0.8765	7.7069	0.1044	13.3868	19.0800 
138.048	0.0342	0.1860	0.9053	7.6630	0.1263	13.3813	19.0700 
138.070	0.0024	0.1836	0.9399	7.6135	0.1758	13.3209	19.0900 
138.089	-0.0068	0.1943	0.9399	7.5641	0.2362	13.2056	19.0900 
138.197	-0.0029	0.2173	0.9414	7.5092	0.3076	13.0847	19.0900 
138.210	0.0171	0.2461	0.9443	7.4597	0.3571	12.9694	19.0600 
138.210	0.0444	0.2925	0.9644	7.4103	0.3680	12.8430	19.0700 
138.210	0.0508	0.3047	0.9741	7.3553	0.3571	12.6727	19.0700 
138.210	0.0464	0.2817	1.0054	7.3059	0.3241	12.4585	19.0800 
138.210	0.0239	0.2603	1.0376	7.2949	0.2637	12.2443	19.0800 
138.232	-0.0020	0.2690	1.0498	7.3499	0.1483	12.0630	19.0800 
138.243	0.0044	0.2607	1.0581	7.4377	0.0110	11.9257	19.0800 
138.261	0.0063	0.2729	1.0361	7.5476	-0.1373	11.8433	19.0800 
138.280	0.0044	0.3003	1.0156	7.6794	-0.3076	11.7828	19.0800 
138.303	0.0781	0.2588	1.0957	7.7454	-0.5438	11.6895	19.0700 
138.414	0.1382	0.1987	1.2036	7.7289	-0.8459	11.5411	19.0700 
138.428	0.1338	0.1440	1.2954	7.7344	-1.1700	11.3379	19.0900 
138.429	0.1577	0.0762	1.2773	7.7618	-1.4557	11.1401	19.0900 
138.429	0.1680	-0.0015	1.2612	7.8717	-1.6974	11.0907	19.0800 
138.429	0.1787	0.0137	1.1875	8.0750	-1.9336	11.2335	19.0800 
138.429	0.1953	0.0732	1.1270	8.2562	-2.0599	11.3873	19.0800 
138.448	0.2031	0.0464	1.0723	8.2782	-2.1039	11.4587	19.0800 
138.471	0.1353	0.0220	1.1406	8.2288	-2.0819	11.3928	19.0800 
138.481	0.0845	0.0386	1.1147	8.1244	-2.0380	11.2555	19.0800 
138.499	0.0605	0.0513	1.0513	7.9706	-1.9116	11.1292	19.0500 
138.520	0.0752	0.0581	0.9146	7.8058	-1.7578	11.0797	19.0800 
138.632	0.0962	0.0708	0.8369	7.7014	-1.6095	11.1017	19.0800 
138.646	0.1143	0.0801	0.7891	7.6630	-1.5051	11.1511	19.0700 
138.646	0.0962	0.0796	0.8008	7.6520	-1.4117	11.1676	19.0900 
138.646	0.0879	0.0630	0.8511	7.6630	-1.3458	11.1346	19.0800 
138.646	0.0928	0.0488	0.8901	7.6575	-1.3019	11.1127	19.0800 
138.652	0.1123	0.0630	0.9321	7.6465	-1.2909	11.1676	19.1000 
138.666	0.1221	0.1001	0.9639	7.6300	-1.2689	11.2885	19.0700 
138.687	0.1509	0.1484	0.9912	7.6080	-1.2579	11.4917	19.0700 
138.785	0.1689	0.1792	1.0063	7.5751	-1.2689	11.7224	19.0700 
138.800	0.1738	0.1943	1.0229	7.5037	-1.2909	11.9366	19.0800 
138.800	0.1675	0.1821	1.0249	7.4158	-1.3074	12.1234	19.0700 
138.800	0.1587	0.1538	1.0562	7.3389	-1.2964	12.3376	19.0800 
138.800	0.1602	0.1484	1.0444	7.3169	-1.2909	12.6068	19.0800 
138.807	0.1621	0.1836	1.0117	7.3773	-1.2744	12.9419	19.0800 
138.821	0.1631	0.2227	1.0103	7.5037	-1.2415	13.3209	19.0600 
138.841	0.1904	0.2939	0.9888	7.6575	-1.2195	13.6890	19.0800 
138.863	0.2012	0.3140	0.9839	7.8168	-1.2030	13.9691	19.0900 
138.888	0.2134	0.2695	0.9780	8.0035	-1.1975	14.1833	19.0800 
138.993	0.1870	0.2070	0.9897	8.1903	-1.1975	14.3811	19.0800 
139.004	0.0962	0.1270	1.1470	8.3826	-1.1975	14.5789	19.0800 
139.005	0.0762	0.2192	1.2559	8.5968	-1.1975	14.8096	19.0700 
139.005	0.0879	0.2734	1.1660	8.8879	-1.2305	15.1282	19.0600 
139.005	0.0425	0.2300	1.1245	9.1296	-1.2030	15.4358	19.0700 
139.005	-0.0288	0.1841	1.0640	9.3549	-1.1591	15.7104	19.0800 
139.028	-0.0527	0.1328	1.0156	9.5142	-1.1261	15.9467	19.0800 
139.037	-0.0933	0.0938	1.0352	9.5691	-1.1206	16.2598	19.0700 
139.056	-0.0859	0.1226	1.0752	9.5251	-1.1261	16.6718	19.0700 
139.077	-0.0088	0.1558	1.1055	9.3054	-1.1096	17.1552	19.0600 
139.097	0.0474	0.1729	1.0986	8.9703	-1.0712	17.5946	19.0500 
139.200	0.0771	0.1919	1.0132	8.6188	-1.0712	17.9022	19.0600 
139.214	0.0479	0.1494	0.9507	8.3002	-1.1316	18.1219	19.0700 
139.214	0.0093	0.0923	0.9126	8.0310	-1.2250	18.3142	19.0600 
139.214	0.0151	0.0996	0.8911	7.8497	-1.3568	18.5394	19.0500 
139.214	0.0439	0.1489	0.8647	7.7618	-1.5216	18.8141	19.0700 
139.223	0.0640	0.1733	0.8652	7.7234	-1.7029	19.1107	19.0700 
139.238	0.0815	0.1851	0.8960	7.6794	-1.9061	19.3634	19.0600 
139.260	0.0854	0.1841	0.9243	7.6135	-2.0599	19.5721	19.0700 
139.280	0.0859	0.1934	0.9404	7.5201	-2.1533	19.6930	19.0700 
139.302	0.0654	0.2021	0.9551	7.4158	-2.1588	19.7205	19.0700 
139.416	0.0571	0.1953	0.9697	7.2949	-2.0984	19.6765	19.0700 
139.429	0.0596	0.2026	0.9365	7.1906	-2.0270	19.5996	19.0600 
139.430	0.0527	0.1953	0.9326	7.0972	-1.9556	19.5392	19.0600 
139.430	0.0518	0.2046	0.9702	7.0148	-1.9171	19.4678	19.0800 
139.430	0.0586	0.2310	0.9976	6.9434	-1.9116	19.3524	19.0600 
139.430	0.0771	0.2427	1.0430	6.8884	-1.9501	19.1711	19.0800 
139.436	0.0815	0.2437	1.0542	6.8774	-2.0325	18.9569	19.0700 
139.454	0.0630	0.2510	1.0508	6.9763	-2.1423	18.7427	19.0700 
139.475	0.0552	0.2568	1.0386	7.1411	-2.2687	18.5504	19.0800 
139.497	0.0547	0.2803	1.0215	7.3553	-2.3895	18.3691	19.0700 
139.516	0.0801	0.2866	1.0737	7.5476	-2.5323	18.1714	19.0600 
139.628	0.1865	0.2627	1.2324	7.5861	-2.7246	17.8802	19.0800 
139.644	0.2036	0.2163	1.2505	7.6135	-2.9498	17.5232	19.0900 
139.644	0.1909	0.1084	1.2549	7.6575	-3.1696	17.1277	19.0700 
139.644	0.1929	0.0664	1.1807	7.7838	-3.4167	16.8365	19.0800 
139.644	0.1860	0.0703	1.0552	8.0475	-3.7189	16.7596	19.0800 
139.644	0.2451	0.0527	1.0313	8.2452	-3.9880	16.8036	19.0600 
139.663	0.2700	0.0117	1.0703	8.2562	-4.1089	16.7487	19.0700 
139.686	0.1846	0.0425	1.1533	8.1738	-4.0100	16.4410	19.0600 
139.694	0.1333	0.0635	1.1362	8.0585	-3.8123	16.0400	19.0700 
139.713	0.1094	0.1035	1.0581	7.8717	-3.5486	15.6665	19.0600 
139.734	0.1270	0.1216	0.8877	7.6410	-3.2245	15.3479	19.0700 
139.852	0.1426	0.1069	0.8208	7.3773	-2.8839	15.0897	19.0600 
139.867	0.1289	0.0630	0.8066	7.1411	-2.5763	14.8700	19.0700 
139.867	0.0957	0.0615	0.8428	6.9379	-2.3071	14.6118	19.0700 
139.867	0.0767	0.0352	0.9121	6.7786	-2.1039	14.3811	19.0600 
139.867	0.0986	0.0527	0.9331	6.6797	-1.9885	14.2383	19.0700 
139.867	0.1333	0.0894	0.9277	6.6248	-1.9336	14.1779	19.0500 
139.874	0.1514	0.1182	0.9360	6.6138	-1.9281	14.2108	19.0500 
139.893	0.1680	0.1597	0.9551	6.6083	-1.9666	14.2987	19.0700 
140.019	0.1782	0.1626	0.9692	6.5918	-2.0325	14.4305	19.0700 
140.026	0.1650	0.1504	0.9775	6.5588	-2.1039	14.6063	19.0500 
140.027	0.1626	0.1323	0.9785	6.4984	-2.1588	14.8151	19.0600 
140.027	0.1724	0.1157	1.0029	6.4050	-2.1808	15.0623	19.0500 
140.027	0.1787	0.1357	1.0166	6.3226	-2.1753	15.3259	19.0400 
140.027	0.1816	0.1768	1.0532	6.3171	-2.1533	15.6226	19.0300 
140.033	0.1987	0.2188	1.0781	6.3721	-2.1423	15.9412	19.0500 
140.056	0.2422	0.2676	1.0547	6.4874	-2.1478	16.2598	19.0400 
140.080	0.2500	0.2876	1.0313	6.6357	-2.1478	16.5399	19.0500 
140.100	0.2349	0.2656	1.0112	6.8115	-2.1423	16.7761	19.0300 
140.120	0.2100	0.2246	1.0151	6.9983	-2.1423	17.0013	19.0200 
140.241	0.1470	0.1187	1.0669	7.1906	-2.1259	17.2595	19.0400 
140.254	0.1084	0.1313	1.2095	7.3499	-2.0654	17.5012	19.0400 
140.254	0.1157	0.2456	1.2334	7.5970	-2.0435	17.7374	19.0400 
140.254	0.1123	0.2568	1.1304	7.8937	-2.0490	18.0450	19.0300 
140.254	0.0439	0.2109	1.1357	8.1189	-1.9830	18.3087	19.0300 
140.254	-0.0356	0.1250	1.0313	8.3496	-1.9501	18.4955	19.0300 
140.260	-0.0908	0.0591	1.0229	8.5199	-1.9061	18.6273	19.0200 
140.278	-0.1304	0.0591	1.0762	8.6462	-1.9336	18.8470	19.0500 
140.300	-0.0728	0.1001	1.1509	8.6298	-1.9995	19.1931	19.0300 
140.320	0.0298	0.1699	1.1528	8.4814	-2.0380	19.5667	19.0400 
140.328	0.0796	0.1899	1.0928	8.2452	-2.0435	19.8853	19.0400 
140.348	0.0967	0.1665	0.9785	7.9816	-2.0490	20.1270	19.0400 
140.452	0.0713	0.1357	0.9185	7.7179	-2.0709	20.2972	19.0300 
140.466	0.0420	0.1143	0.8496	7.5421	-2.1313	20.4291	19.0400 
140.467	0.0474	0.1211	0.8462	7.4213	-2.2302	20.5389	19.0400 
140.467	0.0771	0.1616	0.8501	7.3499	-2.3566	20.6268	19.0500 
140.467	0.0903	0.1836	0.8472	7.3224	-2.4994	20.6982	19.0400 
140.476	0.0908	0.2056	0.8730	7.3169	-2.6093	20.6982	19.0300 
140.489	0.1064	0.1929	0.9097	7.2729	-2.6862	20.6378	19.0400 
140.628	0.0884	0.1880	0.9536	7.2070	-2.7136	20.4840	19.0600 
140.634	0.0698	0.1948	0.9658	7.1411	-2.6971	20.2808	19.0500 
140.634	0.0640	0.1895	0.9683	7.0752	-2.6477	20.0775	19.0500 
140.634	0.0610	0.1924	0.9580	7.0093	-2.5818	19.8962	19.0500 
140.634	0.0439	0.2178	0.9204	6.9708	-2.4939	19.6985	19.0500 
140.634	0.0239	0.2676	0.9272	6.9543	-2.4060	19.4348	19.0400 
140.634	0.0488	0.2729	1.0005	6.8829	-2.3676	19.0778	19.0400 
140.647	0.0640	0.2490	1.0347	6.8225	-2.3895	18.6383	19.0400 
140.667	0.0259	0.2275	1.0371	6.8335	-2.4554	18.1384	19.0500 
140.687	0.0054	0.2114	1.0488	6.9104	-2.5378	17.6385	19.0300 
140.709	0.0054	0.2471	1.0376	7.0367	-2.6422	17.2046	19.0500 
140.733	0.0381	0.2813	1.0386	7.2015	-2.7795	16.8311	19.0400 
140.843	0.1582	0.2446	1.1914	7.2510	-2.9773	16.4246	19.0400 
140.857	0.2080	0.2202	1.2520	7.2894	-3.2574	15.9576	19.0500 
140.858	0.2041	0.1118	1.3174	7.3663	-3.5486	15.4138	19.0500 
140.858	0.2275	0.0542	1.2705	7.4982	-3.8342	14.9249	19.0300 
140.858	0.2217	0.0171	1.1631	7.7344	-4.0759	14.6118	19.0400 
140.858	0.2402	0.0142	1.1074	7.9871	-4.2902	14.4910	19.0400 
140.876	0.2534	0.0122	1.1069	8.1189	-4.4220	14.4086	19.0500 
140.890	0.2036	0.0273	1.1650	8.1299	-4.4495	14.2163	19.0500 
140.912	0.1304	0.0962	1.1538	8.0750	-4.3671	13.8702	19.0500 
140.936	0.1304	0.1113	1.0493	7.9541	-4.2352	13.4747	19.0500 
141.045	0.1294	0.0439	0.9067	7.7289	-4.0594	13.1396	19.0500 
141.058	0.1392	0.0220	0.8579	7.5256	-3.8892	12.9254	19.0500 
141.058	0.1416	0.0620	0.8252	7.3938	-3.7354	12.7661	19.0500 
141.058	0.1333	0.0913	0.8486	7.3114	-3.5925	12.5793	19.0500 
141.058	0.1392	0.0791	0.8901	7.2729	-3.4772	12.3871	19.0500 
141.058	0.1401	0.0830	0.9067	7.2565	-3.3838	12.2003	19.0400 
141.064	0.1567	0.1016	0.9150	7.2345	-3.3234	12.0575	19.0400 
141.084	0.1636	0.1221	0.9155	7.1906	-3.2794	11.9421	19.0300 
141.105	0.1646	0.1445	0.9170	7.1356	-3.2574	11.8597	19.0400 
141.126	0.1802	0.1479	0.9463	7.0477	-3.2684	11.8213	19.0500 
141.148	0.1919	0.1431	0.9512	6.9543	-3.3289	11.8378	19.0500 
141.266	0.2012	0.1367	0.9595	6.8500	-3.4003	11.8872	19.0300 
141.272	0.1948	0.1440	0.9824	6.7676	-3.4497	11.9586	19.0300 
141.272	0.1870	0.1704	0.9854	6.7401	-3.4772	12.0575	19.0500 
141.273	0.1860	0.1973	0.9717	6.7676	-3.4772	12.1783	19.0500 
141.273	0.2046	0.2231	0.9736	6.8225	-3.4662	12.3267	19.0400 
141.273	0.2085	0.2451	0.9868	6.8884	-3.4552	12.4640	19.0500 
141.282	0.2036	0.2734	1.0063	6.9489	-3.4277	12.5519	19.0500 
141.302	0.1973	0.2876	1.0088	7.0203	-3.4003	12.6068	19.0400 
141.325	0.2109	0.2822	1.0068	7.1246	-3.4003	12.6892	19.0400 
141.346	0.2212	0.2554	1.0010	7.2400	-3.4222	12.8156	19.0400 
141.370	0.2061	0.2080	0.9951	7.3718	-3.4387	13.0243	19.0200 
141.477	0.1831	0.1743	1.0332	7.5421	-3.4442	13.3374	19.0400 
141.490	0.1616	0.2065	1.2329	7.7124	-3.4387	13.7549	19.0200 
141.491	0.2061	0.3057	1.2334	7.8882	-3.4167	14.1779	19.0400 
141.491	0.1558	0.2949	1.1108	8.0200	-3.2959	14.4800	19.0300 
141.491	0.0811	0.2349	1.0518	8.0914	-3.0707	14.6393	19.0400 
141.491	-0.0161	0.0942	1.0337	8.0530	-2.8015	14.6777	19.0400 
141.512	-0.0493	-0.0181	1.0239	7.9321	-2.6257	14.6777	19.0300 
141.522	-0.0986	-0.0840	1.1899	7.7563	-2.5488	14.7711	19.0300 
141.639	-0.0410	-0.0117	1.2700	7.5476	-2.5159	15.0403	19.0300 
141.653	0.0352	0.1304	1.2197	7.3334	-2.4884	15.4852	19.0500 
141.653	0.0986	0.1743	1.1582	7.0477	-2.4445	15.9412	19.0300 
141.653	0.1450	0.2192	0.9961	6.7401	-2.4280	16.2653	19.0200 
141.653	0.1440	0.2041	0.8838	6.4490	-2.4829	16.3971	19.0200 
141.653	0.0923	0.1201	0.8169	6.1963	-2.6038	16.4191	19.0400 
141.673	0.0542	0.0493	0.7944	6.0205	-2.7960	16.4905	19.0300 
141.682	0.0308	0.0308	0.8315	5.8942	-2.9828	16.6278	19.0400 
141.701	0.0503	0.0708	0.8862	5.7953	-3.1201	16.7816	19.0100 
141.721	0.1279	0.1162	0.9287	5.6909	-3.2355	16.9464	19.0200 
141.745	0.1455	0.1704	0.9053	5.6195	-3.3289	17.0618	19.0300 
141.847	0.1294	0.2192	0.9072	5.5646	-3.3453	17.0947	19.0300 
141.862	0.1123	0.2026	0.9287	5.4767	-3.3179	17.0618	19.0200 
141.862	0.0923	0.1675	0.9385	5.3284	-3.2629	16.9464	19.0200 
141.862	0.0830	0.1484	0.9331	5.1855	-3.1970	16.8036	19.0200 
141.862	0.0830	0.1445	0.9634	5.0537	-3.1256	16.6608	19.0100 
141.869	0.0820	0.1606	1.0024	4.9493	-3.0817	16.5179	19.0000 
141.884	0.0850	0.1978	1.0405	4.9219	-3.0652	16.3641	19.0300 
141.912	0.0879	0.2051	1.0396	4.9493	-3.0762	16.2048	19.0100 
141.930	0.0830	0.2021	1.0146	5.0317	-3.0981	16.0345	19.0100 
141.939	0.0757	0.2036	0.9995	5.1471	-3.1311	15.8752	19.0000 
141.959	0.0776	0.2212	1.0386	5.2844	-3.1696	15.7599	19.0200 
142.082	0.1221	0.1953	1.1768	5.3284	-3.2245	15.6335	19.0100 
142.088	0.2104	0.2090	1.2627	5.3009	-3.3344	15.4248	18.9900 
142.088	0.2363	0.1230	1.2734	5.3448	-3.5101	15.1447	19.0000 
142.088	0.2427	0.0464	1.2769	5.4492	-3.7134	14.8535	18.9900 
142.088	0.2520	-0.0073	1.2344	5.6964	-3.9990	14.7601	19.0000 
142.088	0.2666	0.0059	1.1523	5.9711	-4.3341	14.8315	19.0000 
142.097	0.2856	0.0308	1.1143	6.1029	-4.5099	14.8260	18.9900 
142.119	0.2241	0.0562	1.1592	6.1084	-4.4659	14.5734	18.9900 
142.248	0.1211	0.0518	1.1768	6.0809	-4.2957	14.1779	19.0200 
142.254	0.1006	0.0737	1.0581	6.0590	-4.0924	13.7384	18.9900 
142.254	0.1304	0.0806	0.8853	6.0040	-3.8672	13.3539	19.0100 
142.254	0.1357	0.0708	0.8301	5.9326	-3.6200	13.0353	19.0000 
142.254	0.1445	0.0234	0.8203	5.8612	-3.4058	12.7826	18.9900 
142.254	0.1318	0.0435	0.8159	5.8392	-3.1915	12.4915	19.0000 
142.260	0.1216	0.0679	0.8369	5.8832	-2.9938	12.2168	19.0000 
142.283	0.1294	0.0752	0.8711	5.9436	-2.8564	11.9861	19.0100 
142.309	0.1543	0.0884	0.9131	6.0095	-2.7960	11.8213	18.9800 
142.317	0.1748	0.0952	0.9258	6.0590	-2.7686	11.7114	18.9800 
142.337	0.1841	0.1113	0.9492	6.0809	-2.7631	11.6730	19.0000 
142.356	0.1890	0.1289	0.9736	6.0919	-2.7631	11.6785	19.0000 
142.466	0.2075	0.1606	0.9907	6.1139	-2.7740	11.7114	18.9900 
142.479	0.2173	0.1689	0.9937	6.1414	-2.7740	11.7883	18.9900 
142.479	0.2104	0.1445	1.0176	6.1743	-2.7521	11.9202	18.9800 
142.480	0.1982	0.1323	1.0249	6.2457	-2.7026	12.0959	18.9900 
142.480	0.1875	0.1704	1.0576	6.3831	-2.6257	12.3157	19.0000 
142.486	0.1943	0.2480	1.0444	6.5753	-2.5433	12.5244	18.9900 
142.500	0.2310	0.2910	0.9790	6.7456	-2.4609	12.6892	18.9900 
142.520	0.2202	0.2451	1.0010	6.8719	-2.3566	12.8265	18.9900 
142.544	0.1362	0.1250	1.1592	6.9653	-2.2577	12.9254	18.9900 
142.565	0.0684	0.1411	1.3384	7.0038	-2.1368	12.9419	18.9900 
142.671	0.0229	0.2197	1.3184	7.1082	-2.0215	12.9639	18.9800 
142.685	-0.0225	0.2236	1.1948	7.2455	-1.8732	13.0408	18.9900 
142.685	-0.0308	0.1304	0.9683	7.3773	-1.7468	13.1671	18.9900 
142.685	-0.0313	-0.0347	0.9570	7.4213	-1.7468	13.3923	18.9700 
142.685	-0.0996	-0.0693	1.0513	7.4377	-1.8347	13.6285	18.9800 
142.685	-0.0830	0.0664	1.1216	7.4158	-1.8787	13.8977	18.9900 
142.705	0.0249	0.1499	1.0908	7.3114	-1.9061	14.3262	18.9900 
142.715	0.0903	0.1743	1.0679	7.1356	-1.9336	14.7931	18.9700 
142.734	0.1328	0.1738	0.9741	6.9873	-2.0325	15.1501	18.9800 
142.755	0.1128	0.1489	0.9170	6.8665	-2.1643	15.3864	18.9800 
142.775	0.0508	0.1152	0.8711	6.7786	-2.2742	15.5072	19.0000 
142.891	0.0303	0.1104	0.8838	6.7181	-2.3676	15.6061	19.0000 
142.905	0.0366	0.1470	0.8843	6.7072	-2.4554	15.7214	18.9800 
142.905	0.0625	0.1665	0.8779	6.7236	-2.5488	15.8423	19.0000 
142.905	0.0820	0.1831	0.8813	6.7126	-2.5818	15.9247	18.9800 
142.905	0.0815	0.1807	0.8955	6.6742	-2.5543	15.9302	19.0000 
142.905	0.0664	0.1758	0.9316	6.6193	-2.4719	15.8258	18.9900 
142.913	0.0410	0.1724	0.9541	6.5808	-2.3621	15.6610	19.0100 
142.933	0.0293	0.1753	0.9814	6.5479	-2.2302	15.4797	18.9900 
143.047	0.0293	0.2114	0.9863	6.5479	-2.0874	15.3149	19.0100 
143.053	0.0273	0.2485	0.9800	6.5808	-1.9446	15.1447	19.0000 
143.053	0.0371	0.2632	0.9893	6.6083	-1.8292	14.9304	18.9900 
143.053	0.0410	0.2451	1.0044	6.6412	-1.7963	14.6613	18.9900 
143.053	0.0215	0.2354	1.0259	6.7401	-1.8512	14.3536	18.9900 
143.053	0.0229	0.2197	1.0347	6.8884	-1.9720	14.0570	18.9900 
143.082	0.0210	0.2266	1.0161	7.1027	-2.1313	13.8098	18.9900 
143.103	0.0210	0.2598	0.9863	7.3993	-2.3181	13.6121	18.9900 
143.113	0.0723	0.2827	1.0454	7.6904	-2.5543	13.4308	19.0000 
143.132	0.1543	0.2788	1.1426	7.8717	-2.8729	13.1836	18.9900 
143.153	0.2056	0.2388	1.1865	8.0969	-3.2520	12.8375	19.0200 
143.257	0.2241	0.1401	1.2744	8.2507	-3.5760	12.4200	18.9900 
143.269	0.2236	0.0732	1.2651	8.4595	-3.9056	12.1179	18.9800 
143.270	0.2070	0.1016	1.1924	8.7451	-4.1913	11.9696	18.9900 
143.270	0.2813	0.0215	1.1255	8.9154	-4.4550	12.0135	18.9900 
143.270	0.2476	-0.0215	1.2017	8.8989	-4.5978	12.0630	18.9900 
143.276	0.1333	0.1021	1.2080	8.8770	-4.5374	11.9037	19.0000 
143.293	0.1104	0.1592	1.1045	8.7891	-4.3726	11.7059	18.9900 
143.313	0.1255	0.1567	0.9185	8.5748	-4.1034	11.5137	18.9900 
143.336	0.1294	0.1099	0.8311	8.2892	-3.8123	11.3654	19.0200 
143.361	0.1299	0.0415	0.7646	8.0145	-3.5760	11.3104	18.9900 
143.472	0.1138	0.0303	0.7856	7.7783	-3.3728	11.2555	19.0000 
143.485	0.0986	0.0532	0.8408	7.6190	-3.2025	11.1676	19.0000 
143.485	0.1221	0.0610	0.8687	7.5256	-3.1036	11.1237	19.0200 
143.485	0.1465	0.1064	0.9004	7.4762	-3.0322	11.1017	18.9900 
143.485	0.1655	0.1270	0.9126	7.4268	-2.9663	11.0962	19.0000 
143.485	0.1841	0.1479	0.9336	7.3553	-2.9169	11.1182	19.0000 
143.491	0.1772	0.1714	0.9512	7.2949	-2.8839	11.1401	19.0100 
143.511	0.1709	0.1865	0.9966	7.2510	-2.8619	11.1841	19.0100 
143.531	0.1743	0.1758	1.0181	7.2015	-2.8674	11.2830	18.9900 
143.552	0.1973	0.2041	1.0254	7.1576	-2.8674	11.4258	18.9900 
143.576	0.2070	0.2393	1.0142	7.1246	-2.8510	11.6016	19.0200 
143.683	0.2231	0.2402	1.0073	7.1191	-2.8235	11.8103	19.0000 
143.696	0.2153	0.2441	1.0083	7.1411	-2.7850	12.0190	19.0000 
143.697	0.1978	0.2798	1.0200	7.1906	-2.7026	12.1838	19.0100 
143.697	0.2109	0.3032	1.0049	7.2455	-2.5928	12.3267	18.9900 
143.697	0.2241	0.2876	0.9976	7.3114	-2.4829	12.4365	18.9900 
143.697	0.2090	0.2358	0.9912	7.3773	-2.3950	12.5464	19.0100 
143.718	0.1484	0.1221	1.0063	7.4542	-2.3126	12.6947	19.0000 
143.728	0.1123	0.0474	1.1035	7.5366	-2.2302	12.9749	19.0100 
143.748	0.0869	0.1670	1.3101	7.6355	-2.1149	13.3484	19.0000 
143.769	0.1299	0.2500	1.1968	7.8442	-2.0215	13.7604	18.9900 
143.791	0.0522	0.1968	1.1401	7.9980	-1.8732	14.1339	19.0100 
143.895	-0.0205	0.1470	1.0801	8.1354	-1.6919	14.3976	19.0000 
143.910	-0.0938	0.0479	1.0547	8.1903	-1.4832	14.5349	18.9900 
143.910	-0.1191	0.0156	1.1084	8.1573	-1.2964	14.6558	19.0100 
143.910	-0.0874	0.0703	1.1875	8.0585	-1.1700	14.9030	18.9900 
143.910	0.0420	0.1621	1.1704	7.9047	-1.1151	15.3149	18.9900 
143.917	0.0830	0.1802	1.1089	7.7179	-1.0876	15.7544	19.0000 
143.933	0.0938	0.1665	0.9868	7.4982	-1.1041	16.1115	18.9900 
143.952	0.0737	0.1309	0.9102	7.2784	-1.1371	16.3751	18.9900 
143.976	0.0479	0.1216	0.8350	7.1301	-1.2085	16.5729	18.9900 
143.998	0.0449	0.1323	0.8228	7.0697	-1.3623	16.7542	19.0100 
144.106	0.0435	0.1431	0.8418	7.0422	-1.5381	16.9025	18.9900 
144.119	0.0591	0.1543	0.8530	7.0313	-1.6919	17.0233	18.9900 
144.119	0.0869	0.1563	0.8789	6.9873	-1.7908	17.1057	18.9900 
144.119	0.0835	0.1611	0.8896	6.9379	-1.8347	17.1167	18.9600 
144.119	0.0615	0.1807	0.9146	6.9159	-1.8512	17.0398	18.9700 
144.119	0.0449	0.1802	0.9326	6.8939	-1.8567	16.8860	18.9800 
144.126	0.0327	0.1611	0.9546	6.8665	-1.8457	16.6937	18.9500 
144.146	0.0347	0.1680	0.9463	6.8555	-1.8347	16.5179	18.9600 
144.166	0.0435	0.1953	0.9492	6.8719	-1.8237	16.3751	18.9700 
144.186	0.0498	0.2246	0.9824	6.9049	-1.8457	16.2213	18.9700 
144.209	0.0698	0.2539	1.0308	6.9763	-1.9391	16.0455	18.9600 
144.320	0.0771	0.2651	1.0386	7.0972	-2.0984	15.8533	18.9700 
144.336	0.0840	0.2539	1.0376	7.2675	-2.2961	15.6445	18.9600 
144.336	0.0684	0.2476	1.0376	7.4927	-2.5104	15.4413	18.9700 
144.336	0.0674	0.2715	1.0396	7.7783	-2.7411	15.2820	18.9700 
144.336	0.0889	0.2935	1.0854	8.0530	-2.9883	15.1392	18.9600 
144.336	0.1899	0.3052	1.2051	8.2068	-3.2245	14.9084	18.9700 
144.358	0.2095	0.2813	1.1875	8.3551	-3.5101	14.5624	18.9600 
144.377	0.1958	0.1274	1.1826	8.4814	-3.7848	14.1504	18.9600 
144.476	0.1895	0.0005	1.1577	8.6517	-4.0649	13.8483	18.9400 
144.490	0.1997	-0.0562	1.1636	8.8879	-4.3781	13.7933	18.9500 
144.490	0.2280	0.0098	1.1689	9.0912	-4.6362	13.8922	18.9600 
144.490	0.2598	0.0894	1.2017	9.1681	-4.7900	13.9911	18.9600 
144.490	0.2212	0.0938	1.2305	9.1296	-4.7900	14.0186	18.9400 
144.498	0.1445	0.1138	1.1426	9.0088	-4.6307	13.9087	18.9300 
144.515	0.1147	0.1118	1.0034	8.8275	-4.3726	13.7164	18.9600 
144.535	0.1050	0.0820	0.8589	8.6133	-4.1034	13.5516	18.9600 
144.559	0.1270	0.0762	0.8052	8.4430	-3.8892	13.4692	18.9500 
144.566	0.1294	0.0952	0.8301	8.3386	-3.7244	13.4473	18.9500 
144.583	0.1367	0.1089	0.8530	8.2782	-3.5815	13.4253	18.9500 
144.695	0.1523	0.0977	0.8779	8.2397	-3.4497	13.4198	18.9600 
144.711	0.1494	0.0957	0.8950	8.2288	-3.3289	13.4143	18.9600 
144.711	0.1592	0.1309	0.8960	8.2397	-3.2410	13.4473	18.9400 
144.711	0.1680	0.1587	0.9009	8.2452	-3.1696	13.5132	18.9500 
144.711	0.1714	0.1733	0.9326	8.1793	-3.0927	13.6066	18.9500 
144.730	0.1758	0.1782	0.9521	8.0640	-3.0103	13.7000	18.9500 
144.736	0.1851	0.1699	0.9595	7.9102	-2.9443	13.8098	18.9400 
144.753	0.1899	0.1577	0.9756	7.7454	-2.8839	13.9417	18.9500 
144.764	0.1860	0.1543	0.9985	7.6245	-2.8290	14.1119	18.9400 
144.781	0.1855	0.1738	1.0142	7.5806	-2.7850	14.3262	18.9400 
144.801	0.1870	0.2036	1.0215	7.6135	-2.7466	14.5789	18.9600 
144.909	0.2036	0.2603	1.0332	7.6849	-2.6971	14.8370	18.9500 
144.921	0.2241	0.2871	1.0283	7.7399	-2.6312	15.0128	18.9500 
144.922	0.2266	0.2925	1.0083	7.8113	-2.5928	15.1282	18.9500 
144.922	0.1997	0.2744	1.0044	7.9211	-2.5708	15.1886	18.9600 
144.922	0.1465	0.2002	1.0317	8.0255	-2.5488	15.2545	18.9500 
144.928	0.0991	0.1587	1.1113	8.1354	-2.5159	15.3809	18.9500 
144.944	0.0913	0.2319	1.2935	8.2617	-2.4829	15.5676	18.9300 
144.971	0.1465	0.3262	1.2168	8.4540	-2.5214	15.7983	18.9300 
144.991	0.1323	0.3066	1.1250	8.6078	-2.5269	15.9576	18.9500 
145.013	0.1021	0.2422	1.0073	8.7781	-2.5653	16.0620	18.9300 
145.033	0.0010	0.0610	0.9507	8.9099	-2.6147	16.1829	18.9500 
145.136	-0.0337	-0.0229	0.9971	8.9319	-2.7136	16.3092	18.9400 
145.149	-0.0591	0.0254	1.1079	8.8660	-2.7686	16.4960	18.9300 
145.150	-0.0215	0.0923	1.1509	8.7341	-2.7740	16.8036	18.9400 
145.150	0.0547	0.1646	1.1470	8.4814	-2.7026	17.2595	18.9300 
145.150	0.1079	0.1919	1.0996	8.1848	-2.5763	17.7155	18.9300 
145.150	0.1211	0.1963	1.0103	7.8937	-2.4609	18.0560	18.9200 
145.171	0.0845	0.1670	0.9448	7.6355	-2.3676	18.2703	18.9200 
145.179	0.0488	0.1040	0.8994	7.4377	-2.3236	18.4296	18.9200 
145.284	0.0439	0.1123	0.8818	7.3059	-2.3071	18.5999	18.9300 
145.290	0.0596	0.1563	0.8691	7.2345	-2.3071	18.7866	18.9300 
145.290	0.0801	0.1914	0.8618	7.2125	-2.3291	19.0063	18.9200 
145.290	0.1050	0.2202	0.8677	7.1960	-2.3511	19.1821	18.9200 
145.290	0.1084	0.2075	0.8794	7.1576	-2.3511	19.2700	18.9100 
145.299	0.0576	0.2007	0.9053	7.0972	-2.3126	19.2426	18.9300 
145.326	0.0327	0.1807	0.9204	7.0313	-2.2522	19.1437	18.9200 
145.349	0.0234	0.1616	0.9253	6.9434	-2.1863	19.0283	18.9100 
145.373	0.0190	0.1953	0.9082	6.8829	-2.1094	18.8910	18.9200 
145.380	0.0337	0.2661	0.9541	6.8060	-2.0105	18.6713	18.9300 
145.499	0.0679	0.2979	1.0044	6.6412	-1.9281	18.2758	18.9200 
145.514	0.0923	0.2788	1.0078	6.4490	-1.9391	17.7484	18.9200 
145.515	0.0464	0.2310	1.0376	6.3007	-2.0050	17.1771	18.9100 
145.515	-0.0073	0.1743	1.0850	6.2128	-2.0709	16.6333	18.9000 
145.515	-0.0278	0.1938	1.0850	6.1963	-2.1423	16.1884	18.9100 
145.515	0.0620	0.2490	1.1157	6.2128	-2.2412	15.8588	18.9000 
145.521	0.1646	0.2651	1.1924	6.1469	-2.4445	15.5511	18.9100 
145.540	0.2222	0.2056	1.2173	6.0699	-2.7631	15.1941	18.9000 
145.558	0.2271	0.0957	1.2510	5.9930	-3.0981	14.8151	18.9000 
145.580	0.2212	-0.0313	1.1938	6.0480	-3.5046	14.6503	18.9000 
145.603	0.2310	-0.0469	1.1392	6.1963	-3.9386	14.7107	18.9200 
145.709	0.2944	-0.0361	1.1440	6.2622	-4.2023	14.8206	18.9000 
145.726	0.2900	-0.0200	1.1689	6.2183	-4.2792	14.8096	18.9000 
145.727	0.1792	0.0459	1.2109	6.1304	-4.1473	14.5514	18.8900 
145.727	0.1221	0.0713	1.1733	5.9985	-3.8947	14.1449	18.9000 
145.727	0.1001	0.0654	1.0630	5.7843	-3.5760	13.7164	18.9000 
145.733	0.0962	0.0679	0.8916	5.5536	-3.2410	13.3484	18.9000 
145.749	0.1299	0.0513	0.8135	5.3394	-2.9718	13.1232	18.8700 
145.771	0.1509	0.0205	0.7847	5.1855	-2.7576	12.9858	18.8900 
145.785	0.1279	0.0332	0.8101	5.0867	-2.5708	12.7881	18.8900 
145.808	0.1157	0.0288	0.8594	5.0482	-2.4445	12.5848	18.8800 
145.830	0.1270	0.0386	0.8784	5.0592	-2.4225	12.4585	18.8600 
145.930	0.1509	0.0581	0.9077	5.0867	-2.4060	12.4091	18.8800 
145.945	0.1636	0.0972	0.9155	5.1141	-2.3456	12.3541	18.8800 
145.945	0.1733	0.1235	0.9424	5.0977	-2.2687	12.3267	18.8900 
145.945	0.1812	0.1167	0.9722	5.0537	-2.2028	12.3431	18.8800 
145.946	0.1787	0.1157	0.9907	5.0043	-2.1423	12.3871	18.8600 
145.946	0.1729	0.1187	0.9932	4.9493	-2.0599	12.4640	18.8700 
145.968	0.1748	0.1206	1.0059	4.8999	-1.9501	12.5958	18.8700 
145.989	0.1914	0.1006	1.0317	4.8669	-1.8347	12.7826	18.8700 
145.996	0.1841	0.1206	1.0718	4.9109	-1.7194	13.0133	18.8600 
146.014	0.1816	0.1831	1.0811	5.0427	-1.5930	13.2440	18.8600 
146.035	0.2104	0.2734	1.0752	5.2240	-1.4502	13.4802	18.8700 
146.145	0.2295	0.2700	1.1060	5.3723	-1.3074	13.6835	18.8600 
146.159	0.2080	0.1709	1.1787	5.4877	-1.1700	13.8428	18.8700 
146.159	0.1343	0.1235	1.2866	5.5865	-1.0107	13.9307	18.8500 
146.159	0.0649	0.2690	1.3433	5.7074	-0.7745	13.9142	18.8700 
146.159	0.0835	0.3071	1.2402	5.8447	-0.5328	13.9307	18.8700 
146.166	0.0425	0.2422	1.0288	6.0095	-0.3406	14.0625	18.8300 
146.181	-0.0166	0.0957	0.8872	6.2347	-0.2966	14.3481	18.8700 
146.206	-0.1157	-0.1040	0.8716	6.3995	-0.3131	14.6118	18.8700 
146.311	-0.1279	-0.0996	0.9912	6.4545	-0.3131	14.7876	18.8200 
146.324	-0.0869	0.1133	1.0986	6.4709	-0.3186	14.9908	18.8500 
146.324	-0.0317	0.1729	1.0908	6.4215	-0.3076	15.3644	18.8400 
146.324	0.0645	0.1729	1.0757	6.2567	-0.2747	15.7709	18.8400 
146.324	0.0913	0.1738	1.0498	6.0425	-0.2856	16.0675	18.8400 
146.324	0.0703	0.1357	0.9512	5.8722	-0.3571	16.2103	18.8300 
146.333	0.0425	0.0884	0.8965	5.7513	-0.4614	16.2762	18.8600 
146.352	0.0078	0.0566	0.8623	5.7074	-0.5988	16.3586	18.8400 
146.374	0.0044	0.0835	0.8550	5.6909	-0.7306	16.4575	18.8400 
146.393	0.0386	0.1582	0.8081	5.7129	-0.8789	16.5619	18.8500 
146.413	0.0640	0.1851	0.8179	5.7349	-1.0437	16.6553	18.8400 
146.530	0.0835	0.1934	0.8853	5.7294	-1.1755	16.6827	18.8300 
146.545	0.0742	0.1846	0.9238	5.7019	-1.2799	16.6168	18.8400 
146.545	0.0542	0.1660	0.9717	5.6415	-1.3458	16.4685	18.8200 
146.545	0.0317	0.1680	0.9966	5.5701	-1.3568	16.2927	18.8400 
146.545	0.0225	0.1812	0.9834	5.5316	-1.3348	16.1499	18.8400 
146.545	0.0366	0.2051	0.9561	5.5042	-1.3184	16.0455	18.8500 
146.551	0.0430	0.2319	0.9492	5.5096	-1.3403	15.9412	18.8300 
146.571	0.0518	0.2344	0.9937	5.5096	-1.4227	15.8038	18.8300 
146.591	0.0566	0.2422	1.0547	5.5371	-1.5656	15.6335	18.8400 
146.614	0.0669	0.2441	1.1050	5.6085	-1.7688	15.4523	18.8400 
146.634	0.0669	0.2402	1.1099	5.7349	-1.9830	15.2710	18.8500 
146.743	0.0605	0.2607	1.0981	5.9271	-2.1698	15.0952	18.8500 
146.759	0.0859	0.2725	1.1147	6.1469	-2.3621	14.9414	18.8400 
146.759	0.1914	0.2383	1.2329	6.2897	-2.6093	14.7711	18.8400 
146.759	0.2173	0.2158	1.2773	6.4105	-2.8839	14.5514	18.8400 
146.759	0.2231	0.1128	1.2715	6.5094	-3.1366	14.2657	18.8200 
146.759	0.2266	0.0576	1.1997	6.6907	-3.3948	14.0955	18.8400 
146.778	0.1821	0.0327	1.0737	6.9543	-3.6255	14.0955	18.8400 
146.790	0.2065	0.0137	1.0356	7.0807	-3.7463	14.1064	18.8400 
146.825	0.2065	-0.0254	1.0791	7.0752	-3.7463	13.9911	18.8200 
146.859	0.1387	-0.0156	1.1489	7.0203	-3.6255	13.6505	18.8300 
146.958	0.0742	0.0479	1.1641	6.9269	-3.4167	13.1726	18.8300 
146.974	0.0781	0.0732	1.0894	6.8060	-3.1641	12.7332	18.8400 
146.974	0.1152	0.0898	0.9390	6.6577	-2.9169	12.4200	18.8300 
146.974	0.1416	0.0747	0.8672	6.5314	-2.7026	12.2113	18.8400 
146.974	0.1284	0.0718	0.8086	6.4709	-2.5269	12.0520	18.8200 
146.974	0.0991	0.0796	0.8174	6.4325	-2.3785	11.8817	18.8200 
146.993	0.0874	0.0479	0.8564	6.3885	-2.2906	11.7279	18.8200 
146.999	0.1089	0.0371	0.8823	6.3391	-2.2522	11.6345	18.8200 
147.127	0.1411	0.0718	0.9072	6.3116	-2.2412	11.6071	18.8100 
147.134	0.1587	0.0986	0.9199	6.2952	-2.2247	11.6510	18.8200 
147.134	0.1758	0.1279	0.9507	6.2677	-2.2083	11.7664	18.8200 
147.134	0.1890	0.1382	0.9648	6.2238	-2.2192	11.9312	18.8000 
147.135	0.1973	0.1528	0.9863	6.1523	-2.2302	12.1069	18.8200 
147.135	0.2036	0.1431	0.9805	6.0809	-2.2357	12.2992	18.8100 
147.135	0.1743	0.1328	1.0068	6.0315	-2.2247	12.5299	18.8000 
147.148	0.1616	0.1421	1.0273	6.0315	-2.1863	12.7826	18.8100 
147.167	0.1772	0.2075	1.0229	6.0864	-2.1204	13.0463	18.8100 
147.187	0.2163	0.2666	0.9917	6.1688	-2.0490	13.2880	18.7900 
147.208	0.2500	0.2861	0.9863	6.2732	-1.9611	13.4637	18.7900 
147.230	0.2417	0.2212	0.9795	6.4050	-1.9061	13.5791	18.8000 
147.347	0.1279	0.0923	1.0566	6.5698	-1.8567	13.6670	18.8000 
147.360	0.0635	0.0688	1.1973	6.7511	-1.7798	13.7329	18.8000 
147.360	0.0928	0.2358	1.2593	6.9818	-1.6974	13.8318	18.8000 
147.360	0.0986	0.2661	1.2358	7.2345	-1.5985	14.0021	18.7900 
147.361	0.0273	0.2700	1.0923	7.4762	-1.4667	14.1504	18.7900 
147.361	-0.0078	0.1660	0.9819	7.6465	-1.3403	14.2053	18.7800 
147.367	-0.1177	-0.0703	1.0259	7.6959	-1.2524	14.2163	18.7900 
147.387	-0.1563	-0.0859	1.1572	7.6904	-1.1865	14.2493	18.7900 
147.407	-0.0483	0.0923	1.2344	7.5696	-1.1261	14.4580	18.7800 
147.429	0.0303	0.1543	1.1860	7.3828	-1.0767	14.8315	18.7900 
147.452	0.0918	0.1768	1.1118	7.1356	-1.0492	15.2325	18.7900 
147.584	0.0981	0.1748	1.0200	6.9214	-1.0437	15.5292	18.7800 
147.590	0.0835	0.1523	0.9238	6.7566	-1.1041	15.7159	18.7700 
147.590	0.0195	0.1021	0.8315	6.6632	-1.2030	15.8203	18.7700 
147.590	0.0015	0.0698	0.8398	6.6248	-1.3623	15.9027	18.7800 
147.590	-0.0005	0.0728	0.8892	6.6357	-1.5601	16.0126	18.7500 
147.590	0.0083	0.1226	0.8926	6.6797	-1.7303	16.1389	18.7700 
147.590	0.0796	0.1807	0.8730	6.7291	-1.8732	16.2598	18.7900 
147.607	0.1191	0.1938	0.8638	6.7786	-2.0270	16.3531	18.7700 
147.625	0.0996	0.1958	0.8794	6.8335	-2.1204	16.3531	18.7800 
147.757	0.0630	0.1753	0.8994	6.8610	-2.1423	16.2488	18.7600 
147.764	0.0352	0.1748	0.9395	6.8719	-2.1149	16.0840	18.7700 
147.764	0.0483	0.1885	0.9653	6.8500	-2.0764	15.9302	18.7600 
147.764	0.0640	0.2349	0.9780	6.8280	-2.0160	15.7544	18.7500 
147.764	0.0723	0.2637	0.9795	6.8115	-1.9501	15.5457	18.7800 
147.764	0.0688	0.2666	0.9819	6.8170	-1.9336	15.2875	18.7700 
147.770	0.0449	0.2495	1.0034	6.8610	-1.9501	14.9799	18.7800 
147.793	0.0278	0.2271	1.0229	6.9489	-2.0325	14.6228	18.7700 
147.814	0.0254	0.2373	1.0156	7.0972	-2.1863	14.2822	18.7600 
147.835	0.0400	0.2808	1.0088	7.3389	-2.4115	13.9856	18.7700 
147.843	0.0894	0.3018	1.0537	7.5641	-2.6971	13.6725	18.7700 
147.863	0.2153	0.2739	1.1836	7.6849	-3.0652	13.2660	18.7700 
147.972	0.2212	0.2012	1.2207	7.8168	-3.4991	12.8156	18.7700 
147.988	0.2310	0.0776	1.2583	7.9706	-3.9221	12.3541	18.7600 
147.988	0.2622	0.0186	1.2598	8.1903	-4.3835	12.0465	18.7700 
147.988	0.2983	0.0205	1.2212	8.4265	-4.8560	11.9421	18.7400 
147.989	0.3018	0.0557	1.1909	8.5858	-5.2185	11.8817	18.7600 
148.005	0.2520	0.0586	1.2056	8.6023	-5.3778	11.7554	18.7500 
148.012	0.1577	0.0605	1.2485	8.5364	-5.3448	11.5247	18.7500 
148.031	0.1074	0.1045	1.0830	8.3826	-5.1581	11.2390	18.7600 
148.042	0.1235	0.1401	0.9312	8.1409	-4.8779	10.9589	18.7300 
148.061	0.1514	0.0835	0.7744	7.8497	-4.5648	10.7666	18.7500 
148.081	0.1411	0.0386	0.7573	7.5751	-4.2847	10.6403	18.7600 
148.185	0.0996	0.0122	0.7910	7.3444	-4.0155	10.5084	18.7500 
148.199	0.0811	0.0352	0.8447	7.1741	-3.7518	10.3436	18.7500 
148.200	0.1118	0.0605	0.8735	7.0807	-3.5486	10.2228	18.7500 
148.200	0.1411	0.0698	0.9033	7.0313	-3.4167	10.1843	18.7600 
148.200	0.1807	0.0991	0.9248	7.0038	-3.3453	10.2448	18.7500 
148.206	0.1890	0.1265	0.9380	6.9763	-3.2849	10.3436	18.7500 
148.222	0.1968	0.1499	0.9766	6.8994	-3.2135	10.4645	18.7500 
148.338	0.1973	0.1631	0.9858	6.8115	-3.1476	10.6183	18.7600 
148.345	0.1973	0.1914	0.9727	6.7291	-3.0817	10.7886	18.7300 
148.345	0.1973	0.1738	0.9805	6.6412	-2.9993	10.9753	18.7400 
148.345	0.1963	0.1724	0.9951	6.5588	-2.8729	11.1676	18.7300 
148.345	0.1929	0.1943	1.0093	6.5149	-2.7191	11.3324	18.7500 
148.346	0.1875	0.2393	1.0200	6.5369	-2.5598	11.4587	18.7300 
148.361	0.2031	0.2661	1.0195	6.6028	-2.4335	11.5961	18.7400 
148.380	0.2158	0.2661	1.0332	6.7181	-2.3511	11.7554	18.7400 
148.400	0.2271	0.2734	1.0537	6.8500	-2.2961	11.8927	18.7600 
148.421	0.2261	0.2725	1.0410	6.9928	-2.2742	12.0026	18.7400 
148.442	0.1909	0.2397	1.0298	7.1356	-2.2632	12.1399	18.7400 
148.546	0.1650	0.1763	1.0479	7.2620	-2.2412	12.3651	18.7400 
148.560	0.1191	0.1318	1.2056	7.3224	-2.1698	12.5903	18.7300 
148.560	0.1162	0.2666	1.2559	7.4158	-2.0490	12.7551	18.7300 
148.560	0.1270	0.2773	1.1748	7.5311	-1.9446	12.9364	18.7400 
148.560	0.0889	0.2041	1.1704	7.5586	-1.8018	13.0353	18.7400 
148.565	-0.0181	0.1260	1.0015	7.6520	-1.6864	13.0518	18.7300 
148.581	-0.0811	-0.0039	0.9043	7.7234	-1.6095	13.0298	18.7200 
148.604	-0.1592	-0.1572	1.0537	7.7234	-1.5930	13.1012	18.7300 
148.626	-0.1143	-0.0547	1.1812	7.6575	-1.5820	13.3099	18.7400 
148.649	0.0000	0.1597	1.1836	7.5092	-1.5436	13.6835	18.7200 
148.757	0.0674	0.2051	1.1445	7.2949	-1.4941	14.1229	18.7200 
148.769	0.1089	0.2202	1.0576	7.0422	-1.4886	14.4415	18.7300 
148.770	0.0996	0.2021	0.9810	6.8060	-1.5271	14.6063	18.7400 
148.770	0.0576	0.1289	0.8765	6.6248	-1.6205	14.6503	18.7200 
148.770	0.0303	0.0718	0.8550	6.4655	-1.7358	14.6503	18.7300 
148.770	0.0005	0.0669	0.8569	6.3721	-1.8787	14.6393	18.7100 
148.777	0.0117	0.1147	0.8682	6.3446	-2.0270	14.6393	18.7200 
148.797	0.0752	0.1440	0.8521	6.3281	-2.2302	14.6558	18.7100 
148.818	0.1001	0.1592	0.8618	6.3062	-2.4115	14.6503	18.7100 
148.837	0.0879	0.1733	0.8848	6.2842	-2.5488	14.5734	18.7200 
148.860	0.0698	0.1768	0.9053	6.2457	-2.6477	14.3976	18.7000 
148.977	0.0503	0.1455	0.9546	6.1688	-2.7246	14.1833	18.7000 
148.994	0.0488	0.1470	0.9561	6.0754	-2.7795	13.9746	18.6900 
148.994	0.0645	0.1870	0.9316	6.0040	-2.8180	13.7988	18.6900 
148.994	0.0894	0.2139	0.9238	5.9546	-2.8784	13.6285	18.7100 
148.994	0.1113	0.2466	0.9541	5.9271	-2.9883	13.4198	18.6900 
148.994	0.1162	0.2393	0.9893	5.8997	-3.1476	13.1836	18.7000 
149.014	0.1089	0.2109	1.0381	5.8942	-3.3179	12.9309	18.7100 
149.021	0.0957	0.2007	1.0688	5.9106	-3.4827	12.6947	18.6900 
149.036	0.0845	0.2285	1.0776	5.9711	-3.6365	12.4915	18.6900 
149.058	0.0918	0.2617	1.0542	6.0754	-3.8013	12.3157	18.6900 
149.077	0.1265	0.2983	0.9873	6.1963	-3.9880	12.1454	18.6800 
149.197	0.1616	0.2754	1.0366	6.2842	-4.1803	11.9476	18.6800 
149.208	0.1997	0.2417	1.2109	6.2842	-4.4220	11.6785	18.6900 
149.208	0.2075	0.1953	1.2729	6.2842	-4.7076	11.3379	18.6800 
149.208	0.2314	0.0522	1.3457	6.2732	-5.0098	10.9973	18.6700 
149.208	0.2417	0.0039	1.3042	6.3776	-5.3558	10.8105	18.6800 
149.208	0.2690	-0.0278	1.1592	6.6302	-5.8063	10.9534	18.6900 
149.215	0.2876	-0.0342	1.1206	6.8390	-6.1908	11.2610	18.6700 
149.234	0.2490	-0.0830	1.1333	6.8445	-6.2952	11.4038	18.6600 
149.368	0.1636	-0.0630	1.1714	6.7731	-6.1633	11.2720	18.6700 
149.377	0.1104	-0.0356	1.1372	6.6632	-5.8887	10.9479	18.6700 
149.377	0.0986	0.0190	1.0723	6.4545	-5.5042	10.5853	18.6800 
149.377	0.1304	0.0308	0.9854	6.1963	-5.1581	10.3821	18.6700 
149.377	0.1675	0.0156	0.8770	5.9711	-4.8944	10.3162	18.6500 
149.377	0.1548	-0.0015	0.8604	5.8173	-4.6692	10.3271	18.6700 
149.383	0.1138	-0.0151	0.8809	5.7129	-4.4659	10.3546	18.6700 
149.406	0.1016	-0.0054	0.8936	5.6909	-4.3231	10.4205	18.6600 
149.427	0.1382	0.0093	0.9102	5.6909	-4.2682	10.5908	18.6600 
149.434	0.1665	0.0254	0.9077	5.6909	-4.2572	10.8545	18.6500 
149.455	0.1816	0.0645	0.9058	5.6854	-4.2462	11.1511	18.6500 
149.476	0.1846	0.0659	0.9268	5.6250	-4.2352	11.4752	18.6600 
149.593	0.1855	0.0664	0.9805	5.5316	-4.2407	11.8158	18.6500 
149.610	0.1885	0.0625	1.0029	5.4327	-4.2517	12.1893	18.6300 
149.610	0.1963	0.0786	1.0073	5.3503	-4.2682	12.6013	18.6200 
149.610	0.1982	0.0845	0.9951	5.2844	-4.2847	13.0573	18.6500 
149.610	0.1982	0.1079	0.9946	5.2515	-4.2847	13.5516	18.6300 
149.610	0.2129	0.1230	0.9839	5.2405	-4.2847	14.0680	18.6300 
149.630	0.2290	0.1538	0.9805	5.2460	-4.2572	14.5679	18.6400 
149.640	0.2388	0.1450	0.9746	5.2844	-4.2462	15.0897	18.6400 
149.656	0.2412	0.1377	0.9912	5.3613	-4.2407	15.6445	18.6300 
149.675	0.2441	0.1260	0.9932	5.4712	-4.2462	16.2323	18.6300 
149.696	0.2471	0.1421	0.9771	5.6030	-4.2407	16.8311	18.6200 
149.820	0.2490	0.1685	0.9761	5.7623	-4.2078	17.4298	18.6300 
149.827	0.2617	0.1997	0.9741	5.9491	-4.1748	18.0560	18.6300 
149.827	0.2739	0.2012	0.9673	6.1523	-4.1473	18.6932	18.6300 
149.827	0.2705	0.2056	0.9590	6.3611	-4.0979	19.3030	18.6300 
149.827	0.2554	0.2007	0.9424	6.5918	-4.0320	19.8798	18.6200 
149.827	0.2070	0.1416	0.9937	6.8225	-3.9441	20.4401	18.6300 
149.832	0.1787	0.1318	1.1489	6.9818	-3.7903	20.9235	18.6100 
149.855	0.1670	0.2686	1.3018	7.1411	-3.6145	21.2915	18.6200 
149.991	0.1597	0.3247	1.3613	7.2729	-3.4552	21.6431	18.6200 
149.998	0.0894	0.3232	1.3096	7.3718	-3.3179	22.0056	18.6100 
149.998	0.0532	0.2749	1.1431	7.4652	-3.1531	22.3462	18.6200 
149.999	-0.0283	0.0313	0.9292	7.5531	-3.0377	22.7637	18.6200 
149.999	-0.1128	-0.1353	0.9727	7.5806	-2.9773	23.3569	18.6100 
149.999	-0.1348	-0.0786	1.0981	7.5531	-2.8455	23.9886	18.6200 
149.999	-0.0850	0.0547	1.1313	7.3553	-2.5653	24.5270	18.6200 
150.010	-0.0225	0.1494	1.1382	6.9983	-2.1698	24.9390	18.6000 
150.030	0.0381	0.1343	1.1064	6.5588	-1.8073	25.2576	18.6000 
150.050	0.0596	0.1396	0.9980	6.1743	-1.5491	25.3949	18.6000 
150.074	0.0171	0.0786	0.9624	5.8722	-1.3513	25.4279	18.6000 
150.095	-0.0396	0.0122	0.9746	5.6689	-1.1920	25.4443	18.6000 
150.205	-0.0713	-0.0015	0.9907	5.5811	-1.0767	25.4993	18.6100 
150.220	-0.0625	0.0337	0.9985	5.5426	-0.9448	25.5652	18.6100 
150.220	-0.0098	0.0718	0.9980	5.4932	-0.7910	25.6201	18.6100 
150.220	-0.0024	0.0889	0.9697	5.4492	-0.6317	25.6091	18.6100 
150.220	-0.0420	0.0903	0.9385	5.4108	-0.4285	25.4828	18.5900 
150.220	-0.0713	0.0713	0.9507	5.3668	-0.2142	25.2576	18.5900 
150.228	-0.0972	0.0396	0.9604	5.3284	-0.0439	24.9609	18.6000 
150.248	-0.1025	0.0225	0.9507	5.3229	0.0879	24.5709	18.6000 
150.375	-0.0879	0.0532	0.9604	5.3174	0.2252	24.0875	18.6000 
150.382	-0.0532	0.0815	0.9375	5.3613	0.3296	23.5547	18.6000 
150.382	-0.0029	0.1074	0.8853	5.4547	0.3790	23.0164	18.6000 
150.382	0.0137	0.0713	0.8896	5.5811	0.3900	22.5000	18.6000 
150.382	0.0239	-0.0396	1.1230	5.6525	0.4230	22.0001	18.6000 
150.382	0.0322	0.0063	1.3428	5.6964	0.4889	21.3959	18.6000 
150.388	0.0532	0.2188	1.2329	5.8832	0.5219	20.8521	18.5800 
150.409	0.0820	0.2178	1.0933	6.1304	0.5164	20.4950	18.5800 
150.432	0.1172	0.1338	0.9575	6.3556	0.3461	20.3412	18.5900 
150.456	0.1406	0.0815	0.9121	6.5918	0.0385	20.3192	18.6000 
150.477	0.1270	0.0962	0.8989	6.7841	-0.2032	20.2203	18.5900 
150.581	0.0918	0.1147	0.9800	6.8939	-0.2856	19.9896	18.5700 
150.596	0.0850	0.0747	1.1021	6.9873	-0.3351	19.8083	18.5900 
150.596	0.1016	0.0806	1.1172	7.0752	-0.3680	19.6490	18.5800 
150.596	0.1226	0.1592	1.0532	7.1906	-0.3516	19.4623	18.6000 
150.596	0.1343	0.1797	1.0176	7.3059	-0.3406	19.2810	18.5900 
150.596	0.1128	0.1694	1.0229	7.4158	-0.3516	19.1272	18.5900 
150.616	0.1016	0.1533	1.0088	7.4872	-0.3571	19.0393	18.5800 
150.626	0.1006	0.1421	0.9922	7.4817	-0.3516	19.0173	18.5700 
150.645	0.1060	0.1313	0.9878	7.3499	-0.3571	19.0338	18.5700 
150.666	0.1133	0.1211	1.0093	7.1521	-0.3571	19.0448	18.5700 
150.692	0.1162	0.1123	1.0400	6.9653	-0.3790	19.0558	18.5700 
150.808	0.1069	0.1191	1.0557	6.8335	-0.4065	19.0833	18.5600 
150.821	0.1030	0.1357	1.0454	6.7731	-0.4120	19.1272	18.5800 
150.822	0.1157	0.1548	1.0405	6.7621	-0.4120	19.2261	18.5600 
150.822	0.1226	0.1729	1.0356	6.7731	-0.4065	19.3414	18.5600 
150.822	0.1255	0.1738	1.0107	6.7676	-0.3900	19.4348	18.5700 
150.822	0.1104	0.1660	1.0024	6.7401	-0.3571	19.5117	18.5700 
150.838	0.0923	0.1475	1.0117	6.6687	-0.2911	19.5667	18.5600 
150.853	0.0923	0.1392	1.0210	6.5643	-0.2142	19.6216	18.5600 
150.875	0.0874	0.1431	1.0225	6.4435	-0.1263	19.6875	18.5500 
150.885	0.0830	0.1470	1.0234	6.3391	-0.0494	19.7644	18.5600 
150.903	0.0850	0.1479	1.0303	6.2512	0.0055	19.8633	18.5500 
151.008	0.0791	0.1548	1.0190	6.1853	0.0439	19.9512	18.5400 
151.025	0.0752	0.1411	1.0063	6.1359	0.0659	20.0116	18.5500 
151.026	0.0767	0.1279	1.0112	6.0809	0.0769	20.0500	18.5500 
151.026	0.0718	0.1260	1.0054	6.0370	0.0769	20.0885	18.5500 
151.026	0.0767	0.1240	1.0161	6.0040	0.0604	20.1599	18.5400 
151.045	0.0820	0.1289	1.0176	5.9821	0.0275	20.2643	18.5600 
151.052	0.0894	0.1348	1.0181	5.9656	-0.0055	20.3687	18.5500 
151.068	0.0854	0.1406	1.0239	5.9601	-0.0494	20.4456	18.5500 
151.088	0.0874	0.1499	1.0308	5.9601	-0.0989	20.5005	18.5300 
151.111	0.0869	0.1509	1.0278	5.9656	-0.1483	20.5389	18.5400 
151.227	0.0938	0.1514	1.0239	5.9875	-0.1923	20.5774	18.5400 
151.234	0.0952	0.1602	1.0181	6.0260	-0.2417	20.6213	18.5300 
151.234	0.0972	0.1558	1.0288	6.0645	-0.2802	20.6763	18.5300 
151.234	0.0957	0.1553	1.0273	6.0864	-0.3076	20.7147	18.5400 
151.234	0.0874	0.1465	1.0293	6.0919	-0.3131	20.7202	18.5400 
151.234	0.0806	0.1426	1.0195	6.0864	-0.3076	20.7092	18.5400 
151.242	0.0801	0.1362	1.0156	6.0864	-0.2856	20.6982	18.5400 
151.262	0.0835	0.1392	1.0132	6.1029	-0.2637	20.7202	18.5300 
151.388	0.0884	0.1523	1.0259	6.1304	-0.2417	20.7642	18.5400 
151.394	0.0898	0.1602	1.0273	6.1633	-0.2197	20.8026	18.5300 
151.394	0.0820	0.1611	1.0215	6.2018	-0.2032	20.8301	18.5400 
151.394	0.0771	0.1514	1.0249	6.2238	-0.1758	20.8575	18.5400 
151.394	0.0776	0.1475	1.0161	6.2402	-0.1428	20.8850	18.5400 
151.394	0.0732	0.1572	1.0127	6.2622	-0.1154	20.9290	18.5400 
151.400	0.0762	0.1587	1.0132	6.2897	-0.0879	20.9839	18.5400 
151.422	0.0762	0.1533	1.0190	6.2952	-0.0659	21.0278	18.5600 
151.444	0.0742	0.1592	1.0234	6.3062	-0.0385	21.0608	18.5400 
151.468	0.0752	0.1597	1.0156	6.3116	-0.0165	21.0883	18.5400 
151.490	0.0713	0.1572	1.0078	6.3171	0.0000	21.1102	18.5400 
151.598	0.0752	0.1553	1.0083	6.3226	0.0165	21.1377	18.5400 
151.612	0.0767	0.1543	1.0146	6.3226	0.0220	21.1707	18.5300 
151.612	0.0703	0.1523	1.0171	6.3226	0.0275	21.1981	18.5500 
151.612	0.0703	0.1494	1.0244	6.3171	0.0275	21.2201	18.5500 
151.612	0.0732	0.1606	1.0229	6.3226	0.0275	21.2421	18.5500 
151.612	0.0825	0.1592	1.0181	6.3281	0.0110	21.2531	18.5500 
151.620	0.0801	0.1611	1.0190	6.3446	-0.0110	21.2695	18.5400 
151.640	0.0864	0.1582	1.0186	6.3611	-0.0385	21.2860	18.5300 
151.659	0.0840	0.1646	1.0171	6.3885	-0.0659	21.3025	18.5500 
151.680	0.0854	0.1553	1.0259	6.4050	-0.0934	21.3190	18.5400 
151.701	0.0854	0.1528	1.0220	6.4160	-0.1154	21.3300	18.5400 
151.810	0.0811	0.1553	1.0229	6.4215	-0.1263	21.3354	18.5600 
151.822	0.0752	0.1611	1.0166	6.4270	-0.1318	21.3245	18.5500 
151.822	0.0820	0.1548	1.0127	6.4325	-0.1318	21.3190	18.5400 
151.822	0.0903	0.1514	1.0186	6.4325	-0.1483	21.3190	18.5500 
151.822	0.0879	0.1572	1.0215	6.4435	-0.1538	21.3190	18.5500 
151.829	0.0850	0.1611	1.0249	6.4655	-0.1538	21.3080	18.5300 
151.846	0.0845	0.1567	1.0249	6.4874	-0.1538	21.2915	18.5400 
151.868	0.0835	0.1577	1.0166	6.5094	-0.1538	21.2695	18.5400 
151.891	0.0840	0.1626	1.0063	6.5314	-0.1483	21.2476	18.5500 
151.899	0.0825	0.1646	1.0151	6.5479	-0.1428	21.2201	18.5500 
151.917	0.0879	0.1606	1.0239	6.5533	-0.1483	21.1981	18.5500 
152.024	0.0908	0.1587	1.0278	6.5533	-0.1538	21.1761	18.5400 
152.037	0.0918	0.1626	1.0273	6.5643	-0.1538	21.1707	18.5300 
152.038	0.0898	0.1572	1.0181	6.5753	-0.1483	21.1652	18.5400 
152.038	0.0845	0.1597	1.0181	6.5918	-0.1263	21.1597	18.5500 
152.038	0.0806	0.1621	1.0190	6.6083	-0.1099	21.1542	18.5400 
152.044	0.0815	0.1626	1.0190	6.6248	-0.0934	21.1487	18.5400 
152.062	0.0845	0.1631	1.0195	6.6467	-0.0879	21.1487	18.5500 
152.083	0.0884	0.1577	1.0200	6.6632	-0.0824	21.1542	18.5600 
152.106	0.0845	0.1616	1.0166	6.6797	-0.0769	21.1542	18.5400 
152.125	0.0879	0.1582	1.0171	6.6962	-0.0659	21.1542	18.5500 
152.240	0.0791	0.1558	1.0171	6.7126	-0.0494	21.1761	18.5400 
152.253	0.0825	0.1558	1.0200	6.7291	-0.0385	21.2036	18.5400 
152.254	0.0835	0.1694	1.0195	6.7621	-0.0275	21.2366	18.5400 
152.254	0.0864	0.1758	1.0215	6.8005	-0.0275	21.2695	18.5500 
152.254	0.0884	0.1704	1.0210	6.8225	-0.0275	21.3025	18.5500 
152.254	0.0864	0.1665	1.0151	6.8390	-0.0275	21.3245	18.5400 
152.262	0.0771	0.1631	1.0127	6.8500	-0.0055	21.3409	18.5400 
152.276	0.0781	0.1636	1.0117	6.8610	0.0110	21.3684	18.5400 
152.395	0.0859	0.1602	1.0181	6.8719	0.0220	21.4069	18.5400 
152.460	0.0864	0.1660	1.0171	6.8884	0.0275	21.4453	18.5600 
152.460	0.0869	0.1650	1.0142	6.9049	0.0275	21.4728	18.5300 
152.461	0.0830	0.1602	1.0186	6.9104	0.0275	21.4948	18.5200 
152.461	0.0801	0.1602	1.0195	6.9214	0.0275	21.5222	18.5400 
152.461	0.0820	0.1611	1.0200	6.9324	0.0220	21.5442	18.5600 
152.474	0.0796	0.1626	1.0205	6.9489	0.0275	21.5662	18.5400 
152.474	0.0776	0.1660	1.0151	6.9653	0.0275	21.5881	18.5400 
152.474	0.0801	0.1699	1.0142	6.9818	0.0330	21.6101	18.5400 
152.481	0.0825	0.1636	1.0190	6.9818	0.0275	21.6376	18.5500 
152.494	0.0791	0.1602	1.0239	6.9763	0.0275	21.6595	18.5500 
152.514	0.0752	0.1606	1.0259	6.9763	0.0275	21.6760	18.5400 
152.540	0.0771	0.1582	1.0269	6.9818	0.0275	21.6870	18.5400 
152.556	0.0796	0.1606	1.0239	6.9873	0.0275	21.7035	18.5400 
152.597	0.0757	0.1660	1.0176	6.9983	0.0385	21.7090	18.5500 
152.611	0.0688	0.1611	1.0088	7.0093	0.0439	21.7145	18.5400 
152.625	0.0664	0.1509	1.0137	7.0038	0.0385	21.7145	18.5400 
152.641	0.0664	0.1519	1.0146	6.9983	0.0330	21.7145	18.5500 
152.730	0.0684	0.1436	1.0244	6.9873	0.0220	21.7200	18.5500 
152.744	0.0698	0.1426	1.0278	6.9818	0.0110	21.7365	18.5600 
152.745	0.0688	0.1626	1.0229	6.9983	0.0000	21.7584	18.5300 
152.745	0.0688	0.1650	1.0205	7.0258	-0.0055	21.7804	18.5600 
152.745	0.0674	0.1626	1.0229	7.0477	-0.0165	21.7969	18.5500 
152.753	0.0679	0.1621	1.0225	7.0642	-0.0275	21.8024	18.5500 
152.773	0.0654	0.1650	1.0171	7.0642	-0.0275	21.8024	18.5500 
152.873	0.0674	0.1543	1.0083	7.0532	-0.0330	21.7859	18.5500 
152.879	0.0649	0.1484	1.0093	7.0258	-0.0439	21.7859	18.5600 
152.879	0.0654	0.1475	1.0166	6.9983	-0.0549	21.7914	18.5600 
152.879	0.0693	0.1538	1.0239	6.9818	-0.0659	21.8134	18.5700 
152.879	0.0718	0.1543	1.0283	6.9708	-0.0769	21.8353	18.5700 
152.891	0.0718	0.1558	1.0303	6.9653	-0.0824	21.8408	18.5400 
152.911	0.0708	0.1606	1.0220	6.9653	-0.0824	21.8408	18.5700 
153.017	0.0708	0.1597	1.0171	6.9653	-0.0879	21.8463	18.5700 
153.024	0.0684	0.1587	1.0156	6.9653	-0.0934	21.8518	18.5700 
153.024	0.0674	0.1621	1.0112	6.9708	-0.0934	21.8628	18.5600 
153.024	0.0703	0.1567	1.0200	6.9708	-0.1044	21.8903	18.5700 
153.024	0.0713	0.1553	1.0249	6.9598	-0.1154	21.9122	18.5600 
153.030	0.0713	0.1494	1.0254	6.9543	-0.1263	21.9452	18.5600 
153.051	0.0708	0.1509	1.0269	6.9598	-0.1318	21.9891	18.5700 
153.073	0.0728	0.1602	1.0215	6.9763	-0.1428	22.0221	18.5700 
153.096	0.0752	0.1646	1.0146	7.0093	-0.1538	22.0551	18.5600 
153.117	0.0767	0.1602	1.0142	7.0367	-0.1703	22.0825	18.5600 
153.214	0.0752	0.1563	1.0166	7.0532	-0.1868	22.1210	18.5400 
153.226	0.0747	0.1587	1.0210	7.0752	-0.2032	22.1594	18.5700 
153.226	0.0796	0.1597	1.0278	7.0972	-0.2252	22.2144	18.5700 
153.227	0.0854	0.1655	1.0249	7.1301	-0.2527	22.2638	18.5700 
153.227	0.0840	0.1660	1.0151	7.1686	-0.2747	22.3077	18.5700 
153.233	0.0776	0.1685	1.0142	7.2125	-0.2911	22.3297	18.5700 
153.252	0.0767	0.1631	1.0171	7.2510	-0.3021	22.3572	18.5600 
153.269	0.0820	0.1650	1.0225	7.2784	-0.3186	22.3846	18.5700 
153.292	0.0840	0.1699	1.0205	7.3059	-0.3296	22.4231	18.5700 
153.316	0.0830	0.1714	1.0210	7.3334	-0.3351	22.4451	18.5700 
153.415	0.0835	0.1675	1.0181	7.3499	-0.3461	22.4670	18.5900 
153.427	0.0864	0.1694	1.0127	7.3718	-0.3571	22.5000	18.6000 
153.428	0.0864	0.1704	1.0132	7.3993	-0.3680	22.5330	18.5800 
153.428	0.0869	0.1748	1.0205	7.4268	-0.3735	22.5659	18.5900 
153.428	0.0859	0.1709	1.0264	7.4487	-0.3845	22.5989	18.5800 
153.435	0.0811	0.1729	1.0176	7.4707	-0.3845	22.6208	18.5800 
153.449	0.0776	0.1714	1.0117	7.4872	-0.3955	22.6263	18.5900 
153.471	0.0752	0.1680	1.0078	7.4982	-0.4010	22.6318	18.5800 
153.494	0.0801	0.1680	1.0107	7.5092	-0.4120	22.6483	18.5900 
153.517	0.0874	0.1709	1.0195	7.5201	-0.4285	22.6758	18.6000 
153.607	0.0903	0.1685	1.0259	7.5311	-0.4449	22.7032	18.5900 
153.621	0.0884	0.1675	1.0273	7.5531	-0.4614	22.7252	18.6000 
153.621	0.0864	0.1694	1.0205	7.5806	-0.4779	22.7472	18.6000 
153.622	0.0850	0.1689	1.0103	7.6190	-0.4944	22.7692	18.6000 
153.622	0.0845	0.1675	1.0068	7.6575	-0.5109	22.7966	18.6000 
153.639	0.0864	0.1753	1.0127	7.7014	-0.5273	22.8241	18.5900 
153.654	0.0903	0.1782	1.0229	7.7344	-0.5438	22.8461	18.5900 
153.677	0.0913	0.1782	1.0298	7.7618	-0.5658	22.8680	18.6000 
153.696	0.0908	0.1802	1.0200	7.7948	-0.5878	22.8900	18.6000 
153.719	0.0913	0.1733	1.0151	7.8223	-0.6042	22.9120	18.6000 
153.811	0.0923	0.1729	1.0107	7.8497	-0.6152	22.9285	18.6100 
153.823	0.0908	0.1753	1.0112	7.8772	-0.6317	22.9340	18.6100 
153.823	0.0835	0.1772	1.0205	7.8992	-0.6427	22.9230	18.6200 
153.823	0.0879	0.1699	1.0200	7.9102	-0.6592	22.9120	18.6100 
153.823	0.0820	0.1748	1.0171	7.9211	-0.6757	22.8845	18.6200 
153.829	0.0830	0.1685	1.0176	7.9266	-0.6976	22.8625	18.6200 
153.846	0.0840	0.1675	1.0103	7.9321	-0.7141	22.8571	18.6300 
153.867	0.0908	0.1689	1.0098	7.9376	-0.7361	22.8625	18.6200 
153.892	0.0918	0.1738	1.0166	7.9541	-0.7526	22.8735	18.6300 
153.915	0.0918	0.1738	1.0171	7.9706	-0.7635	22.8735	18.6200 
153.934	0.0879	0.1699	1.0229	7.9871	-0.7745	22.8680	18.6300 
153.949	0.0889	0.1670	1.0220	7.9980	-0.7910	22.8571	18.6200 
153.966	0.0908	0.1704	1.0112	8.0200	-0.8020	22.8461	18.6200 
154.060	0.0884	0.1753	1.0107	8.0420	-0.8130	22.8406	18.6300 
154.074	0.0879	0.1758	1.0093	8.0695	-0.8240	22.8351	18.6300 
154.074	0.0894	0.1753	1.0142	8.0914	-0.8295	22.8351	18.6200 
154.074	0.0879	0.1733	1.0190	8.1079	-0.8405	22.8406	18.6300 
154.074	0.0879	0.1733	1.0186	8.1299	-0.8459	22.8461	18.6100 
154.092	0.0889	0.1738	1.0195	8.1519	-0.8569	22.8571	18.6300 
154.105	0.0898	0.1758	1.0171	8.1793	-0.8624	22.8790	18.6300 
154.124	0.0898	0.1802	1.0146	8.2068	-0.8679	22.9065	18.6200 
154.144	0.0898	0.1836	1.0142	8.2288	-0.8734	22.9449	18.6500 
154.164	0.0884	0.1772	1.0137	8.2397	-0.8789	22.9724	18.6300 
154.262	0.0879	0.1753	1.0122	8.2452	-0.8789	22.9999	18.6300 
154.276	0.0903	0.1748	1.0132	8.2507	-0.8789	23.0219	18.6300 
154.276	0.0894	0.1782	1.0142	8.2507	-0.8734	23.0438	18.6300 
154.276	0.0918	0.1807	1.0142	8.2507	-0.8789	23.0713	18.6300 
154.276	0.0938	0.1787	1.0151	8.2562	-0.8899	23.0988	18.6300 
154.284	0.0923	0.1865	1.0142	8.2617	-0.9009	23.1262	18.6400 
154.304	0.0898	0.1782	1.0190	8.2562	-0.9064	23.1592	18.6300 
154.323	0.0864	0.1714	1.0215	8.2452	-0.9064	23.1812	18.6400 
154.342	0.0830	0.1738	1.0205	8.2288	-0.8954	23.1976	18.6500 
154.362	0.0874	0.1782	1.0107	8.2233	-0.8899	23.2196	18.6400 
154.461	0.0923	0.1733	1.0073	8.2178	-0.8954	23.2526	18.6500