StartTime: 2018-11-23 19:07:01.106
Time(s)	ax(g)	ay(g)	az(g)	AngleX(deg)	AngleY(deg)	AngleZ(deg)	T(Â°) 
460.877	-0.0176	0.1128	1.0264	4.4275	3.9056	-12.2992	28.5800 
460.897	-0.0151	0.1045	1.0244	4.4220	3.9056	-12.3376	28.5800 
460.952	-0.0142	0.1074	1.0229	4.4220	3.9056	-12.3596	28.5600 
460.954	-0.0103	0.1104	1.0234	4.4275	3.9056	-12.3706	28.5700 
460.956	-0.0161	0.1016	1.0210	4.4275	3.8947	-12.3816	28.5700 
460.976	-0.0171	0.1030	1.0210	4.4275	3.8892	-12.3871	28.5800 
461.009	-0.0176	0.1113	1.0225	4.4275	3.8837	-12.3926	28.5800 
461.016	-0.0186	0.1079	1.0244	4.4220	3.8892	-12.3981	28.5700 
461.036	-0.0234	0.1050	1.0220	4.3945	3.9001	-12.4146	28.5900 
461.056	-0.0215	0.0972	1.0234	4.3506	3.9166	-12.4585	28.5700 
461.076	-0.0132	0.1040	1.0205	4.3066	3.9386	-12.4969	28.5800 
461.096	-0.0181	0.0962	1.0229	4.2682	3.9551	-12.5299	28.5700 
461.155	-0.0186	0.1045	1.0269	4.2133	3.9661	-12.5739	28.5800 
461.158	-0.0220	0.0967	1.0166	4.1693	3.9771	-12.6068	28.5900 
461.158	-0.0283	0.0884	1.0063	4.0979	3.9825	-12.6563	28.5800 
461.175	-0.0293	0.1069	1.0298	3.9990	3.9880	-12.7332	28.5900 
461.195	-0.0439	0.1035	1.0396	3.9111	3.9880	-12.8156	28.5800 
461.215	-0.0449	0.1069	1.0273	3.8232	3.9880	-12.8925	28.5800 
461.235	-0.0513	0.1245	1.0444	3.7573	3.9935	-12.9529	28.5800 
461.255	-0.0522	0.1021	1.0249	3.6475	4.0045	-12.9639	28.5800 
461.275	-0.0410	0.0908	1.0273	3.4717	4.0265	-12.9913	28.5800 
461.295	-0.0464	0.0977	1.0146	3.2410	4.0375	-13.0188	28.5900 
461.347	-0.0547	0.1040	1.0068	2.9883	4.0540	-13.0573	28.6000 
461.350	-0.0601	0.0869	1.0146	2.7521	4.0704	-13.0957	28.5900 
461.354	-0.0571	0.1011	1.0210	2.5543	4.0979	-13.1122	28.5800 
461.374	-0.0508	0.1016	1.0273	2.3785	4.1364	-13.1067	28.5800 
461.394	-0.0376	0.0967	1.0361	2.2247	4.1583	-13.0627	28.6000 
461.414	-0.0366	0.0835	1.0142	2.1039	4.1583	-12.9913	28.5800 
461.434	-0.0371	0.0747	1.0049	1.9885	4.1473	-12.9089	28.5900 
461.454	-0.0347	0.0908	1.0322	1.8347	4.1418	-12.8375	28.5700 
461.474	-0.0317	0.0532	1.0293	1.6040	4.1309	-12.7771	28.5900 
461.493	-0.0400	0.0366	1.0313	1.3788	4.1309	-12.7496	28.5900 
461.515	-0.0464	0.0444	1.0288	1.0931	4.1528	-12.7771	28.5900 
461.534	-0.0537	0.0488	1.0034	0.8514	4.1858	-12.8320	28.5900 
461.585	-0.0293	0.0361	1.0005	0.7141	4.2023	-12.8595	28.5800 
461.587	-0.0063	0.0571	1.0493	0.6537	4.1748	-12.8156	28.5900 
461.593	0.0068	0.0244	1.0308	0.5933	4.1528	-12.7332	28.5900 
461.613	0.0186	0.0264	1.0171	0.4230	4.1473	-12.6672	28.5900 
461.633	-0.0190	0.0527	1.0215	0.2527	4.1418	-12.6398	28.5900 
461.653	-0.0239	0.0566	1.0146	0.1154	4.1309	-12.6727	28.5900 
461.673	-0.0107	0.0752	1.0146	0.0439	4.0979	-12.7167	28.6000 
461.693	-0.0103	0.0063	1.0215	-0.1099	4.0594	-12.7826	28.6000 
461.714	-0.0049	0.0225	1.0239	-0.3735	4.0320	-12.8925	28.5800 
461.732	-0.0063	0.0244	1.0210	-0.5933	4.0045	-13.0243	28.5800 
461.770	-0.0146	0.0552	1.0229	-0.7910	3.9990	-13.2111	28.5800 
461.772	-0.0293	0.0459	1.0186	-0.9558	3.9990	-13.3759	28.5800 
461.792	-0.0317	0.0308	1.0283	-1.0931	3.9935	-13.5132	28.5900 
461.812	-0.0029	0.0166	1.0342	-1.2030	3.9661	-13.5956	28.5800 
461.832	-0.0039	0.0078	1.0225	-1.3074	3.9166	-13.6505	28.5800 
461.852	0.0000	0.0264	1.0151	-1.4777	3.8892	-13.7329	28.5800 
461.872	-0.0288	0.0762	1.0337	-1.5491	3.8342	-13.7274	28.5800 
461.892	-0.0415	-0.0039	1.0000	-1.5601	3.8123	-13.6780	28.5900 
461.912	0.0552	0.1465	1.0967	-1.3293	3.7683	-13.3539	28.5700 
461.967	0.0898	-0.0859	1.0542	-1.0162	3.6475	-12.8156	28.5800 
461.968	0.0303	0.0000	1.0913	-0.7581	3.6420	-12.4915	28.5800 
461.972	-0.0166	0.0581	1.1138	-0.5658	3.6969	-12.1783	28.5800 
461.992	-0.0376	0.0513	1.0581	-0.4285	3.8068	-11.9366	28.5800 
462.012	0.0220	-0.0112	1.0146	-0.4285	3.8947	-11.7004	28.5700 
462.031	0.0220	0.0542	1.0317	-0.4504	3.9825	-11.5356	28.5900 
462.052	0.0195	-0.0259	1.0015	-0.4449	4.0375	-11.3873	28.5700 
462.071	0.0566	-0.0166	1.0029	-0.4889	4.0814	-11.3159	28.5700 
462.091	0.0391	0.0015	1.0044	-0.5273	4.0649	-11.2390	28.5800 
462.111	0.0161	0.0024	0.9897	-0.5603	3.9935	-11.1401	28.5800 
462.159	-0.0117	0.0234	0.9971	-0.6757	3.9111	-11.0577	28.5700 
462.164	-0.0327	0.0225	0.9976	-0.7141	3.8287	-10.9973	28.5800 
462.171	-0.0332	0.0015	0.9746	-0.7086	3.7463	-10.9149	28.6000 
462.190	-0.0229	0.0215	0.9790	-0.7086	3.6584	-10.7941	28.5800 
462.210	0.0000	0.0332	1.0181	-0.6921	3.5706	-10.6403	28.5900 
462.230	0.0444	0.0615	1.0708	-0.6207	3.4772	-10.4865	28.5900 
462.251	0.0693	0.0688	1.0684	-0.4834	3.3728	-10.3876	28.5900 
462.270	0.0859	0.0869	1.0259	-0.3571	3.2794	-10.3766	28.5800 
462.290	0.0723	0.1021	1.0156	-0.2472	3.1915	-10.4535	28.5800 
462.310	0.0205	0.1069	1.0366	-0.2802	3.1476	-10.6128	28.5900 
462.331	0.0098	0.1099	1.0635	-0.3625	3.1421	-10.7831	28.6000 
462.349	0.0366	0.1069	1.0718	-0.4504	3.1586	-10.9479	28.6000 
462.405	0.0498	0.1201	1.0361	-0.5054	3.1696	-11.0962	28.5800 
462.407	0.0488	0.0859	0.9731	-0.5933	3.1586	-11.2610	28.5900 
462.409	0.0322	0.0840	0.9697	-0.7306	3.1421	-11.4478	28.5900 
462.430	0.0410	0.0815	0.9683	-0.9229	3.1421	-11.6345	28.6000 
462.449	0.0522	0.0859	0.9639	-1.1206	3.1421	-11.8158	28.5900 
462.469	0.0474	0.1006	0.9639	-1.2799	3.1476	-12.0245	28.6000 
462.489	0.0347	0.0723	0.9702	-1.4227	3.1641	-12.2552	28.5900 
462.510	0.0308	0.0977	0.9995	-1.5491	3.1860	-12.4750	28.5800 
462.531	0.0269	0.0947	1.0068	-1.6479	3.2190	-12.6672	28.5800 
462.549	0.0303	0.1016	1.0215	-1.7303	3.2794	-12.8101	28.5900 
462.595	0.0327	0.1182	1.0293	-1.7798	3.3618	-12.8815	28.5800 
462.597	0.0278	0.1196	1.0405	-1.7633	3.4717	-12.8979	28.5800 
462.609	0.0381	0.1152	1.0400	-1.6919	3.5980	-12.8925	28.5700 
462.629	0.0479	0.1177	1.0405	-1.5985	3.7354	-12.8320	28.5800 
462.648	0.0669	0.1240	1.0693	-1.4777	3.8727	-12.7386	28.5900 
462.669	0.0845	0.1182	1.0981	-1.3184	3.9990	-12.5903	28.5900 
462.689	0.0723	0.1167	1.1172	-1.1316	4.1254	-12.4310	28.5700 
462.708	0.0552	0.1289	1.1235	-0.9778	4.2682	-12.2937	28.5800 
462.731	0.0566	0.1445	1.1333	-0.8185	4.4385	-12.1619	28.6100 
462.784	0.0469	0.1523	1.1519	-0.6042	4.6362	-12.0465	28.6000 
462.786	0.0029	0.1484	1.2031	-0.3461	4.8669	-11.9751	28.6000 
462.788	-0.0059	0.1426	1.1851	-0.0439	5.1031	-11.9312	28.5800 
462.808	0.0220	0.0874	1.1445	0.3186	5.3229	-11.9421	28.5900 
462.828	0.0083	0.0571	1.1519	0.6812	5.5371	-12.0905	28.5900 
462.849	-0.0122	0.0527	1.0962	1.0382	5.7349	-12.3322	28.5800 
462.867	-0.0586	0.0103	1.0078	1.3513	5.8887	-12.6837	28.5800 
462.887	-0.1841	-0.0513	0.8979	1.6699	6.0150	-13.1012	28.6000 
462.908	-0.2344	-0.1094	0.9131	1.9720	6.0754	-13.3704	28.6000 
462.929	-0.2617	-0.1152	1.0215	2.1918	6.1084	-13.4033	28.6100 
462.976	-0.2378	-0.1133	1.0981	2.3126	6.1853	-13.3539	28.5900 
462.978	-0.1235	-0.0381	1.1772	2.4060	6.2842	-13.2495	28.5800 
462.987	-0.0352	-0.0220	1.1592	2.5928	6.3062	-13.0737	28.6000 
463.007	-0.0547	-0.0293	1.0610	2.6862	6.2732	-13.0627	28.6100 
463.027	-0.0796	0.0684	0.9927	2.7466	6.2842	-13.2111	28.5900 
463.047	-0.1519	0.1362	0.8672	3.0267	6.3062	-13.2605	28.6000 
463.067	-0.1704	0.0928	0.8203	3.3783	6.3556	-13.2330	28.5800 
463.087	-0.1577	0.1191	0.8174	3.6420	6.4600	-13.1891	28.5800 
463.106	-0.1323	0.0811	0.8232	3.8672	6.5424	-13.0957	28.5800 
463.126	-0.0957	0.0508	0.8447	4.0814	6.5314	-12.8760	28.5700 
463.146	-0.1060	0.0806	0.9087	4.1144	6.4929	-12.5793	28.5700 
463.166	-0.1284	0.1074	0.9590	4.0485	6.4325	-12.2662	28.5700 
463.217	-0.1377	0.0923	0.9497	4.0814	6.3721	-11.9586	28.5700 
463.220	-0.1138	0.1191	0.9463	4.0540	6.3007	-11.6620	28.5700 
463.226	-0.0815	0.1650	0.9614	4.0430	6.1908	-11.3818	28.5800 
463.246	-0.0674	0.1875	0.9697	4.0375	6.0040	-11.1511	28.5900 
463.266	-0.0713	0.1621	0.9727	4.1144	5.7513	-10.9698	28.5800 
463.286	-0.0806	0.1411	0.9888	4.1803	5.4327	-10.8655	28.5800 
463.306	-0.1064	0.1270	0.9990	4.2133	5.1141	-10.8655	28.5800 
463.325	-0.1714	0.1743	1.0596	4.3561	4.8889	-11.0083	28.5800 
463.345	-0.1646	0.2075	1.0996	4.4330	4.7021	-11.1346	28.5800 
463.365	-0.1548	0.2627	1.1157	4.3396	4.5209	-11.1292	28.5900 
463.408	-0.1714	0.1807	1.1040	4.4385	4.3396	-11.0138	28.5800 
463.411	-0.1064	0.1729	1.2666	4.5758	4.1858	-10.8215	28.5900 
463.425	-0.0420	0.2109	1.3354	4.8010	4.0375	-10.5414	28.5800 
463.445	-0.0298	0.1357	1.2798	5.1306	3.8782	-10.2008	28.5800 
463.465	-0.0586	0.1099	1.1860	5.4492	3.7738	-9.8163	28.5800 
463.485	-0.0059	0.0366	1.0288	5.6689	3.7628	-9.4208	28.5800 
463.505	0.0698	0.0181	0.9077	5.7678	3.7683	-8.9648	28.5800 
463.525	0.2026	-0.1255	0.8516	5.6799	3.7299	-8.4540	28.5500 
463.545	0.2559	-0.1304	0.9146	5.4272	3.6749	-8.0200	28.5800 
463.603	0.1060	-0.1099	1.1343	4.9768	3.7244	-7.9651	28.5800 
463.605	0.0093	-0.0313	1.2324	4.3231	3.8782	-8.1738	28.5800 
463.605	-0.0059	0.0269	1.1523	3.7903	4.0430	-8.2892	28.5700 
463.624	-0.0005	0.0347	1.0288	3.5156	4.2847	-8.3771	28.5800 
463.645	0.0098	0.0166	0.8833	3.2629	4.5978	-8.4595	28.5800 
463.664	0.0083	0.0376	0.8511	2.8400	4.9054	-8.5583	28.5800 
463.684	0.0215	0.0215	0.8511	2.7631	5.1965	-8.6462	28.5800 
463.704	0.0562	-0.0059	0.8608	2.8455	5.4382	-8.7122	28.5700 
463.724	0.0762	0.0112	0.8799	2.8455	5.6195	-8.8110	28.5600 
463.745	0.0542	0.0078	0.9014	2.7246	5.7788	-8.9374	28.5800 
463.800	0.0156	0.0566	0.9688	2.5269	5.9381	-9.0857	28.5600 
463.802	0.0107	0.0176	0.9844	2.4500	6.0919	-9.2120	28.5600 
463.804	0.0107	0.0469	0.9941	2.4225	6.2402	-9.3274	28.5500 
463.823	0.0122	0.0815	1.0112	2.3621	6.3556	-9.4373	28.5500 
463.843	0.0156	0.0957	1.0220	2.4500	6.4709	-9.5471	28.5500 
463.863	0.0190	0.0962	1.0435	2.5378	6.5918	-9.6240	28.5500 
463.884	0.0015	0.1465	1.0576	2.5598	6.7346	-9.6680	28.5500 
463.903	-0.0195	0.1733	1.0527	2.5378	6.9049	-9.6625	28.5500 
463.923	-0.0283	0.1714	1.0688	2.6257	7.1027	-9.6185	28.5200 
463.943	0.0234	0.1299	1.0430	2.8235	7.2894	-9.5306	28.5500 
463.987	0.0493	0.1387	1.0288	3.0103	7.4652	-9.5142	28.5400 
463.991	0.0293	0.1748	1.0229	3.1366	7.6300	-9.5856	28.5400 
464.003	-0.0205	0.2129	1.0479	3.2190	7.7838	-9.6844	28.5400 
464.023	-0.1470	0.1689	1.2036	3.3344	7.9706	-9.7614	28.5400 
464.042	-0.1787	0.1494	1.2100	3.4387	8.1903	-9.6899	28.5400 
464.062	-0.1230	0.0200	1.2031	3.4827	8.4320	-9.5197	28.5300 
464.082	-0.1172	-0.0483	1.2109	3.3398	8.6298	-9.2999	28.5200 
464.102	-0.1929	-0.0977	1.0557	2.9773	8.8330	-9.2010	28.5400 
464.122	-0.2314	-0.0967	0.9438	2.2302	9.0802	-9.3054	28.5300 
464.142	-0.2568	-0.1011	0.9658	1.4667	9.2450	-9.3054	28.5200 
464.161	-0.2964	-0.1309	1.0854	0.9833	9.3384	-9.1022	28.5200 
464.182	-0.1592	-0.1060	1.1646	0.5109	9.3549	-8.7122	28.5300 
464.225	-0.1074	-0.0791	1.1309	0.0934	9.2670	-8.2837	28.5300 
464.227	-0.0894	-0.0488	1.0366	-0.1373	9.0747	-7.9486	28.5200 
464.242	-0.0928	-0.0615	0.9585	-0.1923	8.7946	-7.6685	28.5200 
464.261	-0.1392	-0.0112	0.8804	-0.1758	8.4869	-7.4707	28.5300 
464.281	-0.1494	0.0132	0.8413	0.0220	8.2123	-7.3224	28.5200 
464.301	-0.1646	0.0234	0.7881	0.2362	7.9816	-7.1851	28.5100 
464.321	-0.1460	0.0254	0.7983	0.3790	7.7673	-6.9873	28.5100 
464.341	-0.1294	-0.0063	0.8511	0.5383	7.5531	-6.7621	28.4900 
464.364	-0.1680	-0.0161	0.9131	0.5109	7.3444	-6.5314	28.5000 
464.423	-0.1890	0.0308	0.9849	0.2856	7.2070	-6.3556	28.5000 
464.426	-0.1616	0.0645	1.0020	0.1483	7.1191	-6.2567	28.4900 
464.426	-0.1035	0.0737	0.9976	0.4230	7.0532	-6.1523	28.5200 
464.441	-0.0962	0.0806	0.9883	0.8185	6.9763	-6.0754	28.4900 
464.461	-0.0996	0.1201	0.9966	1.0767	6.8610	-5.9656	28.4900 
464.481	-0.1128	0.1318	0.9893	1.3019	6.7236	-5.8667	28.5000 
464.500	-0.1084	0.1509	1.0083	1.5326	6.5479	-5.7953	28.5000 
464.520	-0.1035	0.1514	1.0518	1.8402	6.3281	-5.7513	28.5000 
464.540	-0.1304	0.1587	1.0947	2.1863	6.0974	-5.7843	28.4900 
464.560	-0.1733	0.1548	1.0850	2.4829	5.9381	-5.8777	28.4900 
464.621	-0.1958	0.1665	1.0718	2.7576	5.8722	-6.0150	28.5000 
464.623	-0.1646	0.1997	1.1045	2.9718	5.8557	-6.1029	28.4900 
464.623	-0.0562	0.1450	1.2021	3.2739	5.7898	-6.1249	28.4800 
464.640	0.0283	0.1274	1.2720	3.6804	5.5920	-6.1304	28.4700 
464.660	0.0259	0.0728	1.2178	4.2023	5.3394	-6.2073	28.5000 
464.680	0.0063	0.0200	1.1929	4.7131	5.1251	-6.3831	28.5100 
464.700	0.0464	0.0420	1.0103	4.9054	5.0043	-6.5643	28.4900 
464.719	0.0732	-0.0957	0.9272	4.7736	4.9603	-6.7126	28.4900 
464.740	0.1108	-0.1216	0.9858	4.4659	4.9164	-6.8005	28.5000 
464.759	0.0894	-0.1099	1.1040	4.1144	4.9164	-7.0422	28.5000 
464.812	-0.0498	-0.0098	1.1890	3.7408	4.9933	-7.5366	28.5100 
464.814	-0.0879	0.0356	1.1396	3.4772	5.1416	-8.0585	28.4900 
464.819	-0.0679	0.0420	0.9995	3.3234	5.3394	-8.4430	28.4800 
464.839	-0.0591	0.0210	0.9126	3.1311	5.5536	-8.7616	28.4900 
464.859	-0.0264	-0.0049	0.8447	2.9333	5.7733	-9.0253	28.5000 
464.879	0.0132	0.0215	0.8682	2.9224	5.9601	-9.1846	28.5000 
464.899	0.0352	0.0391	0.9150	2.9224	6.0864	-9.2175	28.5100 
464.919	0.0181	0.0503	0.9209	2.8400	6.1633	-9.2340	28.5100 
464.938	0.0186	0.0576	0.9287	2.6587	6.2292	-9.2340	28.4900 
464.959	0.0327	0.0581	0.9478	2.3840	6.2677	-9.1516	28.4900 
464.998	0.0381	0.0791	0.9570	2.2467	6.2732	-9.0033	28.4900 
465.002	0.0527	0.1074	0.9526	2.2028	6.2402	-8.8220	28.4800 
465.018	0.0049	0.1025	0.9414	2.2137	6.2073	-8.6517	28.4800 
465.038	-0.0186	0.0972	0.9243	2.2852	6.2073	-8.5529	28.4900 
465.058	-0.0474	0.1108	0.9600	2.3071	6.2842	-8.5419	28.5000 
465.078	-0.0356	0.1172	1.0005	2.2192	6.4160	-8.5034	28.5000 
465.098	-0.0088	0.1885	1.0518	2.1863	6.5753	-8.3990	28.4900 
465.118	-0.0229	0.1851	1.0674	2.2852	6.7456	-8.2507	28.4900 
465.138	0.0190	0.1533	1.0254	2.5378	6.8884	-8.0200	28.4900 
465.158	0.0479	0.1333	0.9888	2.9059	7.0148	-7.7948	28.5000 
465.177	-0.0103	0.1611	1.0254	3.2629	7.1521	-7.6355	28.4800 
465.197	-0.0825	0.1719	1.1611	3.5651	7.3334	-7.5146	28.4900 
465.237	-0.1475	0.1426	1.3086	3.8287	7.5366	-7.3828	28.4800 
465.239	-0.1104	0.1113	1.2363	4.1089	7.7618	-7.2015	28.4900 
465.257	-0.1182	0.0034	1.1421	4.2078	8.0035	-7.1191	28.5000 
465.277	-0.1694	-0.1226	1.0278	3.9441	8.2397	-7.2125	28.5000 
465.297	-0.2329	-0.1367	1.0151	3.4113	8.4320	-7.4377	28.5000 
465.317	-0.2524	-0.0552	1.1709	2.9004	8.4705	-7.3993	28.5000 
465.337	-0.2007	-0.0459	1.2632	2.5708	8.4100	-7.1082	28.4800 
465.357	-0.0796	0.0259	1.2358	2.4500	8.2782	-6.6907	28.4900 
465.377	-0.0708	0.0254	1.1440	2.3346	8.0695	-6.3226	28.4900 
465.428	-0.0825	0.0342	0.9937	2.1808	7.8333	-6.0205	28.4900 
465.430	-0.0835	0.0200	0.8940	2.0654	7.6190	-5.7129	28.4800 
465.437	-0.0669	0.0625	0.8130	1.9995	7.4268	-5.4547	28.4800 
465.457	-0.1011	0.0391	0.7813	2.0380	7.2675	-5.2295	28.4600 
465.476	-0.1519	0.0605	0.8115	2.0544	7.1082	-5.0702	28.4700 
465.496	-0.1587	0.0947	0.8247	2.3785	6.9104	-5.0482	28.4700 
465.516	-0.1235	0.0273	0.8267	2.4005	6.7236	-4.9329	28.4700 
465.537	-0.0869	0.0532	0.8799	2.1643	6.5149	-4.6747	28.4600 
465.556	-0.1011	0.0928	0.9224	2.1039	6.3116	-4.5044	28.4500 
465.579	-0.1157	0.0781	0.9429	2.3566	6.1469	-4.3671	28.4600 
465.625	-0.1274	0.1211	0.9678	2.4060	5.9766	-4.3286	28.4500 
465.629	-0.1333	0.1592	1.0059	2.5818	5.8392	-4.3121	28.4500 
465.635	-0.1294	0.1528	1.0508	2.7356	5.7239	-4.2572	28.4400 
465.655	-0.1289	0.1636	1.0659	2.8839	5.5920	-4.2682	28.4400 
465.675	-0.1094	0.1611	1.0381	2.9883	5.4327	-4.2682	28.4200 
465.695	-0.1113	0.1675	1.0293	3.1146	5.2515	-4.2407	28.4300 
465.715	-0.1328	0.2070	1.0190	3.2574	5.0647	-4.1968	28.4400 
465.735	-0.1284	0.1997	1.0576	3.3838	4.8724	-4.1364	28.4400 
465.755	-0.0259	0.1230	1.2710	3.5870	4.6417	-4.0540	28.4400 
465.775	0.0142	0.1299	1.2856	3.9386	4.3671	-3.9661	28.4200 
465.812	0.0552	-0.0420	1.2456	4.1803	4.0814	-3.9111	28.4400 
465.815	0.1123	-0.0933	1.1987	4.0814	3.8068	-3.8123	28.4200 
465.835	0.1206	-0.1182	1.0454	3.6310	3.6420	-3.7024	28.4200 
465.855	0.1006	-0.1821	1.0576	2.9443	3.5486	-3.6035	28.4300 
465.874	0.0439	-0.1055	1.2036	2.0544	3.5156	-3.6255	28.4100 
465.895	-0.0234	-0.0249	1.2749	1.5381	3.5760	-3.7573	28.4200 
465.914	-0.0547	-0.0029	1.1699	1.4117	3.7079	-3.8287	28.4400 
465.934	-0.0449	0.0068	1.0313	1.4337	3.9221	-3.8287	28.4100 
465.954	0.0010	-0.0122	0.8169	1.3348	4.2023	-3.7903	28.4200 
465.975	0.0166	-0.0273	0.7314	1.0327	4.4604	-3.6859	28.4200 
466.002	0.0283	-0.0601	0.7783	0.8405	4.7186	-3.5486	28.4200 
466.014	0.0410	-0.0645	0.8447	0.6812	4.9878	-3.3728	28.4100 
466.052	0.0747	-0.0308	0.9233	0.2582	5.2350	-3.1641	28.4100 
466.054	0.0913	-0.0239	0.9390	0.0110	5.4437	-3.0597	28.4200 
466.073	0.0835	-0.0347	0.9434	-0.2747	5.6305	-2.9388	28.4100 
466.093	0.0703	-0.0015	0.9785	-0.8185	5.8173	-2.7631	28.4100 
466.113	0.0571	0.0488	1.0283	-1.1316	6.0150	-2.6202	28.3900 
466.133	0.0415	0.0757	1.0313	-1.0712	6.2183	-2.5983	28.4100 
466.153	0.0513	0.0742	0.9971	-0.8789	6.4050	-2.6477	28.4000 
466.173	0.0449	0.0708	0.9805	-0.6042	6.5808	-2.7740	28.4100 
466.193	0.0122	0.1211	0.9956	-0.4724	6.8170	-2.9553	28.4000 
466.250	-0.0190	0.1274	1.0093	-0.3845	7.0917	-3.1256	28.4100 
466.254	-0.0151	0.1079	1.0264	-0.2637	7.3553	-3.2465	28.3800 
466.254	0.0376	0.0679	1.0020	-0.0934	7.5861	-3.3728	28.3800 
466.272	0.0781	-0.0010	0.9624	0.1044	7.7893	-3.6420	28.3900 
466.293	0.0249	0.1060	1.0020	0.2527	7.9816	-4.0649	28.3900 
466.312	-0.0820	0.2051	1.1665	0.3186	8.1958	-4.5428	28.3800 
466.332	-0.1787	0.1113	1.3198	0.3955	8.3936	-4.9384	28.3800 
466.352	-0.2856	0.0264	1.2666	0.7086	8.5803	-5.1416	28.3800 
466.372	-0.2886	-0.0923	1.1548	0.9778	8.8495	-5.3009	28.3900 
466.392	-0.2471	-0.1055	1.0347	0.7086	9.1791	-5.4767	28.3900 
466.439	-0.2324	-0.1494	0.9653	0.0714	9.4922	-5.6964	28.3900 
466.441	-0.1943	-0.1870	1.1089	-0.6152	9.6185	-5.7294	28.3800 
466.452	-0.1875	-0.1445	1.2588	-1.1206	9.5911	-5.5371	28.4100 
466.475	-0.1118	-0.1001	1.2324	-1.2854	9.4647	-5.2185	28.3900 
466.491	-0.1133	-0.0459	1.1514	-1.3403	9.2834	-4.9109	28.4000 
466.512	-0.1235	-0.0010	1.0063	-1.2799	9.0308	-4.6307	28.3800 
466.532	-0.1265	-0.0479	0.9136	-1.3953	8.6902	-4.2957	28.3600 
466.551	-0.1387	-0.0576	0.8569	-1.6699	8.3002	-3.9276	28.3800 
466.572	-0.1401	-0.0244	0.8135	-1.6974	7.9376	-3.5596	28.3800 
466.630	-0.1333	-0.0156	0.8018	-1.4612	7.5970	-3.2190	28.3800 
466.633	-0.1396	-0.0078	0.8145	-1.1426	7.2729	-2.9279	28.3900 
466.633	-0.1348	0.0063	0.8394	-0.8405	6.9708	-2.6202	28.3900 
466.651	-0.1064	-0.0142	0.8701	-0.7635	6.6522	-2.2028	28.3800 
466.671	-0.1250	0.0332	0.9307	-0.7086	6.3446	-1.7468	28.3700 
466.691	-0.1016	0.0142	0.9395	-0.7800	6.0645	-1.2964	28.3700 
466.710	-0.0962	0.0742	0.9648	-0.6702	5.8832	-0.9723	28.3600 
466.730	-0.0928	0.0811	0.9951	-0.4285	5.7404	-0.6647	28.3800 
466.751	-0.0898	0.1162	1.0273	-0.1868	5.6085	-0.3790	28.3600 
466.771	-0.0869	0.1489	1.0498	0.2527	5.4657	-0.0934	28.3600 
466.793	-0.0752	0.1577	1.0503	0.6866	5.2954	0.1868	28.3500 
466.810	-0.0796	0.1572	1.0435	1.0822	5.0867	0.4834	28.3600 
466.830	-0.1006	0.1206	1.0137	1.4667	4.8889	0.7251	28.3800 
466.869	-0.1089	0.1050	1.0010	1.6974	4.7186	0.9174	28.3600 
466.871	-0.0889	0.1465	1.0254	1.8237	4.5758	1.0876	28.3700 
466.890	-0.0127	0.1719	1.1514	1.9116	4.3890	1.2689	28.3700 
466.910	0.0601	0.1104	1.2881	2.0435	4.0979	1.4337	28.3600 
466.930	0.0630	0.0776	1.2676	2.5049	3.7189	1.4612	28.3600 
466.950	0.0073	-0.0381	1.2236	3.0597	3.3673	1.3513	28.3600 
466.970	0.0493	-0.0420	1.1274	3.2355	3.1366	1.2579	28.3600 
466.989	0.0762	-0.0801	1.0381	2.9498	2.9938	1.3403	28.3600 
467.009	0.0708	-0.1987	1.0093	2.1643	2.9388	1.4502	28.3800 
467.069	0.0591	-0.2261	1.1235	1.3348	2.9718	1.4447	28.3800 
467.071	-0.0161	-0.0713	1.2451	0.7910	3.1256	1.1151	28.3600 
467.071	-0.0347	-0.0127	1.2129	0.4669	3.3344	0.7196	28.3600 
467.089	-0.0137	0.0063	1.0483	0.3735	3.5651	0.3955	28.3700 
467.109	-0.0024	-0.0127	0.9395	0.3516	3.8013	0.1318	28.3600 
467.129	0.0522	-0.0303	0.8584	0.2911	3.9661	0.0055	28.3700 
467.149	0.1035	-0.0132	0.8369	0.2582	4.0540	-0.0769	28.3700 
467.168	0.0952	-0.0151	0.8335	0.3735	4.0924	-0.2032	28.3600 
467.189	0.0630	0.0103	0.8525	0.4504	4.1528	-0.4175	28.3600 
467.209	0.0459	0.0391	0.8867	0.4669	4.2572	-0.6647	28.3700 
467.257	0.0464	0.0293	0.9058	0.4999	4.3616	-0.8624	28.3700 
467.259	0.0322	0.0146	0.9390	0.5603	4.4604	-0.9998	28.3600 
467.269	0.0317	0.0420	0.9619	0.6866	4.5648	-1.0931	28.3700 
467.288	0.0703	0.0850	0.9961	0.8569	4.6417	-1.1371	28.3700 
467.308	0.0811	0.1006	1.0107	1.1261	4.6802	-1.1920	28.3700 
467.328	0.0601	0.1069	1.0068	1.2250	4.7186	-1.2634	28.3500 
467.348	0.0415	0.1348	1.0093	1.3184	4.7736	-1.3348	28.3500 
467.368	0.0181	0.1299	1.0093	1.5656	4.8505	-1.4008	28.3600 
467.388	0.0332	0.1729	1.0342	1.7358	4.9384	-1.4117	28.3800 
467.408	0.0791	0.1440	1.0298	1.9171	5.0043	-1.4008	28.3600 
467.444	0.1128	0.0884	1.0068	2.1204	5.0592	-1.4227	28.3600 
467.447	0.0825	0.0825	1.0107	2.2357	5.1471	-1.5765	28.3600 
467.467	0.0273	0.2026	1.0459	2.3236	5.2734	-1.7908	28.3700 
467.488	-0.1025	0.2236	1.1533	2.5378	5.4657	-1.9720	28.3500 
467.507	-0.1919	0.1636	1.3022	2.7631	5.7294	-1.9995	28.3500 
467.527	-0.1094	0.1284	1.2407	3.2794	5.9766	-1.7523	28.3700 
467.547	-0.0537	-0.0366	1.1387	3.7848	6.2073	-1.4832	28.3700 
467.567	-0.1040	-0.1084	0.9751	3.9001	6.4655	-1.4282	28.3500 
467.587	-0.1978	-0.2217	0.9453	3.2959	6.7786	-1.6809	28.3600 
467.608	-0.2148	-0.0918	1.1201	2.2852	6.9653	-1.9171	28.3700 
467.626	-0.1816	-0.0586	1.2705	1.6479	7.0093	-1.9281	28.3600 
467.647	-0.0864	-0.0068	1.2686	1.3788	6.9324	-1.7303	28.3500 
467.681	-0.0532	0.0107	1.1812	1.2634	6.7841	-1.4502	28.3500 
467.686	-0.0264	0.0200	1.0068	1.0107	6.5424	-1.2195	28.3500 
467.706	-0.0625	0.0010	0.9209	0.7196	6.2897	-1.0437	28.3400 
467.726	-0.0859	0.0186	0.8223	0.7416	6.1084	-0.9119	28.3500 
467.746	-0.0894	0.0156	0.7842	0.7581	5.9656	-0.8624	28.3500 
467.765	-0.0918	0.0278	0.8291	0.7526	5.8832	-0.8954	28.3300 
467.787	-0.0859	0.0322	0.8491	0.8130	5.8008	-0.9723	28.3300 
467.806	-0.1055	0.0376	0.8433	1.0986	5.6744	-1.1810	28.3400 
467.825	-0.1162	0.0112	0.8672	0.8514	5.5756	-1.2909	28.3500 
467.869	-0.1055	0.0942	0.9136	0.4889	5.4987	-1.2854	28.3200 
467.871	-0.0952	0.0986	0.9443	0.3790	5.4327	-1.3074	28.3300 
467.886	-0.0820	0.0796	0.9448	0.5988	5.3778	-1.2854	28.3200 
467.905	-0.0713	0.0933	0.9443	0.6097	5.3064	-1.3513	28.3300 
467.925	-0.0840	0.1265	0.9937	0.8899	5.2789	-1.4886	28.3400 
467.945	-0.0854	0.1470	1.0469	0.9943	5.2515	-1.5985	28.3300 
467.965	-0.0820	0.1641	1.0654	1.0767	5.1855	-1.7468	28.3200 
467.985	-0.0679	0.1626	1.0615	1.1591	5.0427	-1.9006	28.3200 
468.008	-0.0898	0.1313	1.0449	1.3953	4.8615	-2.0874	28.3200 
468.064	-0.1182	0.1284	1.0356	1.6040	4.6692	-2.2687	28.3200 
468.067	-0.0815	0.1963	1.0435	1.6699	4.4604	-2.3840	28.3200 
468.067	-0.0146	0.1548	1.1548	1.7853	4.1968	-2.4939	28.3300 
468.085	0.0396	0.1421	1.2886	2.1204	3.8562	-2.6312	28.3300 
468.105	-0.0405	0.0391	1.2344	2.6147	3.5486	-2.8015	28.3100 
468.124	-0.0405	-0.0557	1.1567	2.9773	3.3289	-2.9828	28.3100 
468.144	0.0889	-0.1743	1.1187	2.8070	3.2080	-3.0872	28.3100 
468.164	0.1182	-0.1797	1.1123	2.2028	3.1805	-3.1421	28.3100 
468.184	0.0742	-0.1709	1.1475	1.3184	3.2300	-3.2355	28.3100 
468.204	0.0034	-0.1211	1.2324	0.5054	3.3618	-3.3838	28.3100 
468.263	-0.0845	-0.0317	1.2534	0.1758	3.6145	-3.5815	28.3000 
468.267	-0.0664	0.0005	1.1587	0.0439	3.8947	-3.7408	28.3200 
468.267	0.0239	0.0161	0.9409	-0.0714	4.1913	-3.8562	28.3300 
468.284	0.0610	0.0132	0.8101	-0.1703	4.4110	-3.8782	28.3100 
468.303	0.0337	-0.0161	0.7441	-0.3186	4.5319	-3.8287	28.3200 
468.324	0.0137	-0.0459	0.7837	-0.4669	4.6637	-3.7848	28.3200 
468.344	0.0122	-0.0264	0.8394	-0.5768	4.8560	-3.8617	28.3200 
468.364	0.0249	-0.0195	0.8652	-0.6372	5.0702	-3.9551	28.3100 
468.384	0.0264	-0.0146	0.9175	-0.7031	5.2899	-3.9880	28.3100 
468.403	0.0400	-0.0244	0.9565	-0.8295	5.4657	-3.9331	28.3200 
468.452	0.0410	-0.0034	1.0039	-0.9778	5.5920	-3.8068	28.3200 
468.455	0.0449	0.0400	1.0264	-1.0931	5.6799	-3.7024	28.3100 
468.463	0.0347	0.0767	1.0474	-1.0931	5.7294	-3.6749	28.2900 
468.483	0.0205	0.0767	1.0317	-1.0492	5.7513	-3.6639	28.2900 
468.504	-0.0132	0.1274	1.0269	-0.8954	5.7788	-3.6310	28.3000 
468.522	-0.0303	0.1294	1.0220	-0.7581	5.8502	-3.5651	28.3100 
468.543	-0.0132	0.0742	1.0249	-0.5933	5.9491	-3.4442	28.3100 
468.563	0.0210	0.0596	1.0186	-0.4120	6.0645	-3.3124	28.3100 
468.582	0.0781	0.0571	1.0186	-0.2911	6.1798	-3.2355	28.3100 
468.602	0.0962	0.0688	1.0073	-0.2472	6.2347	-3.2135	28.3000 
468.623	0.0068	0.1665	1.1401	-0.1758	6.2512	-3.2355	28.3000 
468.642	-0.1343	0.0767	1.3101	-0.0275	6.2787	-3.2355	28.3000 
468.698	-0.1831	0.0703	1.2637	0.2417	6.3446	-3.1256	28.3000 
468.700	-0.1475	-0.0288	1.1494	0.4010	6.4490	-2.9553	28.2800 
468.702	-0.1860	-0.1631	1.0796	0.1978	6.5039	-2.7795	28.3100 
468.723	-0.2358	-0.1685	1.0313	-0.3296	6.5533	-2.7081	28.2900 
468.742	-0.1733	-0.1772	1.0620	-0.9888	6.5259	-2.5928	28.3000 
468.762	-0.1465	-0.1382	1.1836	-1.5106	6.4545	-2.4005	28.2900 
468.781	-0.0640	-0.0933	1.2056	-1.7963	6.3556	-2.1423	28.3100 
468.801	-0.0415	-0.0386	1.1377	-1.9116	6.2018	-1.9006	28.2800 
468.821	-0.0449	-0.0288	0.9951	-1.9336	5.9656	-1.6534	28.2900 
468.841	-0.0420	-0.0610	0.9253	-2.0380	5.6689	-1.3678	28.2900 
468.892	-0.0454	-0.0537	0.8389	-2.1973	5.3998	-1.1261	28.2800 
468.896	-0.0586	-0.0635	0.8198	-2.1973	5.1746	-0.9448	28.2800 
468.901	-0.0928	-0.0391	0.8525	-2.0709	5.0208	-0.9064	28.2800 
468.921	-0.0908	-0.0132	0.8652	-1.9171	4.8999	-0.9338	28.2800 
468.941	-0.0923	-0.0200	0.8784	-1.8073	4.8065	-1.0162	28.2900 
468.961	-0.0869	-0.0151	0.9170	-1.7853	4.7571	-1.0931	28.2900 
468.981	-0.0864	0.0410	0.9468	-1.7194	4.7241	-1.1426	28.2900 
469.001	-0.0869	0.0747	0.9546	-1.5710	4.6857	-1.1755	28.2800 
469.022	-0.0737	0.0088	0.9248	-1.3678	4.6417	-1.1975	28.2800 
469.040	-0.0669	0.0439	0.9414	-1.1700	4.5758	-1.2524	28.3000 
469.078	-0.0820	0.0786	0.9980	-0.8679	4.5374	-1.3403	28.2800 
469.081	-0.0898	0.0737	1.0210	-0.5878	4.4989	-1.4447	28.2900 
469.100	-0.0630	0.1172	1.0601	-0.3296	4.4220	-1.5381	28.2800 
469.120	-0.0459	0.1250	1.0566	-0.0330	4.2847	-1.6260	28.2900 
469.140	-0.0493	0.1177	1.0264	0.3351	4.0869	-1.7194	28.2800 
469.160	-0.0713	0.0884	1.0342	0.6647	3.8782	-1.7798	28.2800 
469.180	-0.0615	0.0889	1.1191	0.8295	3.6584	-1.7963	28.2700 
469.199	0.0142	0.0566	1.3550	0.8734	3.4113	-1.8018	28.2900 
469.219	0.0547	0.1113	1.3413	1.1371	3.1256	-1.8347	28.2700 
469.271	0.0190	0.0122	1.2095	1.4502	2.8510	-1.9171	28.2800 
469.273	0.0166	-0.0239	1.0928	1.3733	2.6532	-1.9611	28.2700 
469.279	0.0513	-0.1318	0.9360	1.0602	2.5433	-1.9830	28.2800 
469.299	0.0815	-0.2148	0.9751	0.6812	2.4884	-2.0050	28.2800 
469.319	0.0918	-0.1265	1.1426	0.2911	2.4774	-2.0984	28.2700 
469.339	0.0244	-0.0815	1.1919	0.1154	2.5378	-2.3236	28.2800 
469.359	-0.0376	-0.0210	1.1826	0.0659	2.6367	-2.5378	28.2800 
469.379	-0.0220	0.0112	1.1084	-0.0055	2.7631	-2.6257	28.2900 
469.399	0.0156	-0.0376	0.9541	-0.1538	2.9224	-2.6587	28.2900 
469.419	0.0469	-0.0361	0.9028	-0.2417	3.0542	-2.6422	28.2900 
469.439	0.0674	-0.0186	0.8545	-0.3021	3.1421	-2.5983	28.2900 
469.458	0.0566	0.0122	0.8286	-0.1868	3.2025	-2.5708	28.2700 
469.508	0.0347	-0.0078	0.8062	-0.0824	3.2959	-2.5323	28.2800 
469.510	0.0376	-0.0249	0.8262	-0.0330	3.4113	-2.4994	28.2900 
469.518	0.0483	-0.0337	0.9272	-0.0439	3.5101	-2.4335	28.2900 
469.538	0.0776	0.0171	1.0034	-0.0275	3.5815	-2.3401	28.2900 
469.558	0.0771	0.0269	1.0186	-0.0220	3.6365	-2.2247	28.2900 
469.578	0.0586	0.0566	1.0132	0.0714	3.6914	-2.0984	28.2800 
469.597	0.0293	0.0518	1.0063	0.1978	3.7683	-1.9666	28.2700 
469.618	0.0249	0.0762	1.0171	0.3241	3.8672	-1.8127	28.2700 
469.639	0.0273	0.1064	1.0239	0.3516	3.9880	-1.6479	28.2900 
469.658	0.0283	0.1382	1.0376	0.3351	4.0979	-1.4447	28.2900 
469.699	0.0254	0.1377	1.0498	0.4010	4.1803	-1.1591	28.2900 
469.702	0.0464	0.1152	1.0381	0.5713	4.2462	-0.8020	28.2700 
469.717	0.0928	0.0864	0.9961	0.8020	4.3066	-0.4340	28.2900 
469.737	0.0942	0.0659	0.9907	0.9393	4.4055	-0.1813	28.2800 
469.757	0.0640	0.1245	1.0337	0.9778	4.5319	-0.0439	28.2800 
469.777	0.0308	0.1836	1.0625	1.0492	4.6472	0.0934	28.2800 
469.797	-0.0381	0.1196	1.1929	1.1920	4.7406	0.3351	28.2900 
469.817	-0.0684	0.1152	1.2734	1.3623	4.8120	0.6537	28.2700 
469.838	-0.0693	0.0176	1.2222	1.5875	4.8944	0.9723	28.2700 
469.895	-0.0659	-0.0518	1.1914	1.6479	4.9713	1.2140	28.2800 
469.897	-0.1431	-0.0435	1.0396	1.4117	5.0702	1.3733	28.2900 
469.897	-0.1914	-0.1060	0.9448	0.9503	5.2295	1.4117	28.2900 
469.916	-0.2310	-0.1353	1.0127	0.4669	5.3833	1.4557	28.2900 
469.936	-0.2188	-0.0894	1.1455	0.0714	5.4602	1.6205	28.2400 
469.957	-0.1016	-0.0811	1.1953	-0.1923	5.4712	1.9006	28.2600 
469.976	-0.0503	-0.0566	1.1528	-0.4944	5.3998	2.1918	28.2500 
469.996	-0.0498	-0.0137	1.0249	-0.7965	5.2570	2.4060	28.2700 
470.016	-0.0488	-0.0176	0.9546	-1.0547	5.0922	2.6202	28.2600 
470.038	-0.0566	0.0254	0.8823	-1.3293	4.9768	2.8180	28.2500 
470.083	-0.0669	0.0166	0.8418	-1.4063	4.8779	2.9773	28.2600 
470.086	-0.0952	-0.0039	0.8477	-1.2524	4.7681	3.0542	28.2600 
470.095	-0.1138	-0.0103	0.8647	-1.1700	4.6692	3.1091	28.2400 
470.115	-0.1221	-0.0112	0.9082	-1.2634	4.6143	3.1696	28.2500 
470.136	-0.1118	0.0093	0.9150	-1.5161	4.5703	3.2410	28.2400 
470.155	-0.0708	0.0073	0.9775	-1.5491	4.5264	3.3618	28.2400 
470.176	-0.0430	0.0293	0.9922	-1.6370	4.4385	3.5486	28.2300 
470.195	-0.0645	0.0566	0.9873	-1.5271	4.3341	3.7463	28.2300 
470.215	-0.0801	0.0596	0.9653	-1.2085	4.2517	3.9331	28.2400 
470.235	-0.0879	0.0947	0.9346	-0.9833	4.1913	4.0979	28.2400 
470.254	-0.0791	0.0938	0.9277	-0.8624	4.1364	4.2737	28.2400 
470.274	-0.0747	0.1016	0.9521	-0.7690	4.0375	4.4879	28.2300 
470.339	-0.0742	0.0957	0.9653	-0.6592	3.8892	4.7131	28.2400 
470.340	-0.0664	0.1045	0.9736	-0.4889	3.7134	4.9384	28.2300 
470.340	-0.0664	0.0771	0.9766	-0.2527	3.5266	5.1965	28.2300 
470.354	-0.0947	0.0923	1.0322	-0.1318	3.3563	5.4657	28.2500 
470.374	-0.1172	0.0947	1.0684	-0.0385	3.2080	5.7458	28.2100 
470.394	-0.1230	0.1426	1.0615	0.0110	3.0267	6.0480	28.2400 
470.414	-0.0835	0.1626	1.0796	0.1044	2.8070	6.4105	28.2400 
470.434	-0.0132	0.1172	1.1616	0.2417	2.4939	6.8225	28.2600 
470.454	0.0537	0.0430	1.3740	0.4120	2.0435	7.2290	28.2400 
470.475	-0.0200	-0.0381	1.4355	0.7526	1.5656	7.5861	28.2400 
470.535	-0.0996	-0.0684	1.2856	0.9393	1.1810	8.1519	28.2500 
470.537	-0.1064	-0.1113	1.1216	0.5054	0.9943	9.0143	28.2400 
470.537	-0.0625	-0.1748	1.0186	-0.1813	1.0107	10.0305	28.2400 
470.553	-0.0083	-0.2285	1.0566	-0.9613	1.0272	11.2390	28.2400 
470.573	0.0894	-0.2275	1.1460	-1.4667	0.9613	12.5079	28.2300 
470.593	0.0928	-0.2041	1.1309	-1.5106	0.8789	13.6560	28.2400 
470.614	0.0142	-0.1128	1.0981	-1.3953	0.8405	14.7876	28.2300 
470.633	-0.0439	-0.0264	1.0742	-1.3513	0.8679	16.0345	28.2500 
470.655	-0.0884	-0.1108	0.9697	-1.4392	0.9009	17.5287	28.2200 
470.673	-0.0796	-0.1606	0.9204	-1.5051	0.9778	19.1766	28.2200 
470.733	-0.0151	-0.1201	0.9033	-1.6095	1.0767	20.9784	28.2400 
470.735	-0.0015	-0.1045	0.8926	-1.5546	1.1481	22.9340	28.2300 
470.735	-0.0386	-0.1279	0.8613	-1.4282	1.2085	25.0598	28.2300 
470.753	-0.0654	-0.1216	0.8867	-1.3623	1.3019	27.3010	28.2400 
470.772	-0.0688	-0.1611	0.9595	-1.3733	1.4008	29.7290	28.2400 
470.792	-0.0327	-0.1675	1.0078	-1.4502	1.4886	32.3657	28.2300 
470.812	-0.0063	-0.1216	1.0430	-1.5326	1.5875	35.1288	28.2200 
470.833	-0.0093	-0.0923	1.0630	-1.5656	1.6919	37.9358	28.2400 
470.852	-0.0200	-0.1025	1.0718	-1.5820	1.8073	40.7867	28.2300 
470.872	0.0400	-0.1104	1.0850	-1.4777	1.9226	43.6871	28.2300 
470.921	0.0791	-0.0938	1.0698	-1.2524	2.0105	46.5820	28.2500 
470.923	0.0723	-0.0806	1.0474	-0.9943	2.0544	49.3726	28.2300 
470.932	0.0830	-0.0547	1.0161	-0.7581	2.0709	51.9708	28.2300 
470.952	0.1182	-0.0630	1.0127	-0.5658	2.0654	54.4153	28.2300 
470.972	0.1709	-0.0532	1.0132	-0.3790	2.0270	56.5961	28.2100 
470.992	0.1738	-0.0537	1.0034	-0.1978	1.9885	58.4967	28.2300 
471.016	0.1450	-0.0449	0.9487	-0.0439	1.9391	60.1172	28.2300 
471.031	0.0962	-0.0186	0.9170	0.0494	1.9061	61.5070	28.2300 
471.054	0.0649	0.0083	0.9043	0.0220	1.9336	62.7155	28.2200 
471.071	0.0894	-0.0020	0.9292	-0.0879	1.9720	63.8470	28.2300 
471.109	0.1382	-0.0161	0.9658	-0.2087	1.9830	64.8853	28.2200 
471.112	0.1445	-0.0200	1.0161	-0.4065	1.9775	65.8136	28.2200 
471.131	0.0552	-0.0483	1.1797	-0.5713	1.9775	66.6705	28.2400 
471.151	-0.0366	-0.0298	1.2729	-0.3845	2.0599	67.4506	28.2300 
471.171	-0.1025	0.0737	1.1704	0.1538	2.1863	67.9779	28.2200 
471.191	-0.1299	0.0068	0.9736	0.9229	2.3840	68.3514	28.2300 
471.211	-0.0967	-0.0415	0.8530	1.0437	2.5983	68.9227	28.2200 
471.231	-0.1045	-0.0806	0.9517	0.6372	2.7795	69.7412	28.2200 
471.251	-0.1069	0.0215	1.1313	0.4175	2.9388	70.5157	28.2400 
471.301	-0.1045	0.0615	1.1372	0.5383	3.0927	71.1200	28.2300 
471.305	-0.1055	0.0288	1.0986	0.6207	3.2410	71.7078	28.2500 
471.310	-0.0908	0.0088	1.0845	0.4834	3.3893	72.3175	28.2300 
471.330	-0.0342	0.0645	1.0532	0.2802	3.4937	72.9163	28.2300 
471.350	-0.0337	0.0513	0.9810	0.1648	3.5651	73.5095	28.2300 
471.370	-0.0479	0.0581	0.9180	0.1868	3.6145	74.1028	28.2300 
471.390	-0.0664	0.0605	0.9136	0.1758	3.6475	74.6851	28.2400 
471.410	-0.0986	0.0327	0.9438	0.2856	3.6969	75.2618	28.2400 
471.430	-0.0806	0.0166	0.9595	0.2911	3.7683	75.8441	28.2300 
471.450	-0.0347	0.0288	0.9727	0.1813	3.8287	76.3000	28.2400 
471.469	-0.0303	0.0459	0.9917	-0.0110	3.8727	76.6791	28.2200 
471.489	-0.0576	0.0854	1.0200	0.0000	3.9166	76.9318	28.2400 
471.539	-0.0776	0.0884	1.0186	0.2142	3.9771	77.1405	28.2700 
471.542	-0.0791	0.0859	1.0166	0.3625	4.0430	77.3877	28.2300 
471.549	-0.0815	0.1030	1.0039	0.4724	4.1254	77.6129	28.2300 
471.569	-0.0645	0.0835	1.0024	0.6647	4.2023	77.7997	28.2300 
471.588	-0.0625	0.0928	1.0151	0.8405	4.2462	77.9755	28.2300 
471.609	-0.0972	0.0747	1.0313	1.0217	4.2737	78.1897	28.2400 
471.629	-0.1128	0.0649	1.0488	1.2195	4.3121	78.4204	28.2300 
471.649	-0.1284	0.0747	1.1089	1.3788	4.3835	78.5797	28.2400 
471.670	-0.1396	0.0884	1.1221	1.4117	4.4934	78.6346	28.2400 
471.688	-0.1230	0.0889	1.1519	1.4008	4.5923	78.6566	28.2400 
471.728	-0.0991	0.0322	1.2119	1.5436	4.6527	78.7610	28.2500 
471.731	-0.0503	0.0771	1.2412	1.7358	4.6362	78.9258	28.2400 
471.748	-0.0405	0.0205	1.1733	1.9940	4.5923	79.1016	28.2500 
471.768	-0.0415	-0.0259	1.1250	2.2797	4.5154	79.4092	28.2500 
471.788	-0.0269	-0.0498	1.0381	2.4664	4.4659	79.7607	28.2400 
471.808	-0.0068	-0.0566	0.9336	2.6367	4.5044	80.0793	28.2500 
471.828	0.0757	-0.1875	0.8574	2.6093	4.5813	80.3760	28.2400 
471.848	0.1177	-0.1890	0.9282	2.4170	4.6417	80.5463	28.2300 
471.868	0.0679	-0.1304	1.1377	2.2083	4.7076	80.5902	28.2300 
471.916	0.0127	-0.0776	1.2339	2.1973	4.7791	80.6396	28.2500 
471.918	-0.0293	-0.0151	1.2124	2.2961	4.8834	80.7056	28.2600 
471.927	-0.0220	0.0156	1.1240	2.4390	5.0262	80.7495	28.2500 
471.947	0.0273	-0.0073	0.9619	2.5708	5.1746	80.7550	28.2500 
471.967	0.0552	0.0171	0.8853	2.7466	5.2899	80.7166	28.2300 
471.987	0.0532	0.0127	0.8438	2.9608	5.3558	80.6671	28.2500 
472.007	0.0342	0.0059	0.8345	3.1915	5.3888	80.6232	28.2400 
472.027	0.0049	0.0210	0.8501	3.2794	5.4272	80.5243	28.2300 
472.051	-0.0010	0.0308	0.8857	3.2465	5.4712	80.3979	28.2500 
472.067	0.0020	0.0156	0.9458	3.1476	5.5096	80.3320	28.2600 
472.087	0.0117	0.0112	0.9785	2.9553	5.5371	80.3375	28.2400 
472.106	0.0464	0.0410	1.0005	2.7795	5.5371	80.3760	28.2400 
472.159	0.0557	0.0596	1.0005	2.7356	5.5261	80.3979	28.2500 
472.161	0.0557	0.0698	0.9854	2.6752	5.5261	80.4254	28.2600 
472.166	0.0454	0.0869	0.9995	2.6257	5.5481	80.4034	28.2300 
472.186	0.0059	0.0854	1.0117	2.5763	5.6140	80.3870	28.2500 
472.206	-0.0029	0.1157	1.0425	2.4554	5.7184	80.3705	28.2500 
472.226	0.0439	0.1138	1.0640	2.4115	5.8282	80.3265	28.2500 
472.246	0.0771	0.0952	1.0679	2.4280	5.9271	80.2386	28.2500 
472.266	0.0796	0.1309	1.0913	2.4939	6.0095	80.0464	28.2600 
472.286	0.0586	0.1421	1.0894	2.6147	6.0809	79.7882	28.2400 
472.305	-0.0073	0.1455	1.1245	2.8235	6.1359	79.5190	28.2500 
472.344	-0.0601	0.1064	1.2085	2.9169	6.1908	79.3597	28.2400 
472.346	-0.0620	0.0649	1.2280	2.9224	6.2238	79.3597	28.2500 
472.365	-0.0806	-0.0444	1.1699	2.9114	6.2677	79.4147	28.2600 
472.385	-0.1333	-0.1025	1.0625	2.8455	6.3226	79.5520	28.2500 
472.405	-0.1597	-0.1348	0.9854	2.3895	6.3885	79.7827	28.2500 
472.425	-0.1538	-0.1719	0.9580	1.8567	6.4050	80.1343	28.2500 
472.445	-0.1621	-0.1626	1.0361	1.4063	6.3391	80.6506	28.2500 
472.465	-0.1392	-0.1191	1.1714	1.1646	6.2457	81.2274	28.2400 
472.488	-0.0776	-0.1108	1.1870	1.0382	6.1523	81.8097	28.2500 
472.544	-0.0586	-0.0698	1.1567	0.8899	6.0699	82.2711	28.2500 
472.546	-0.0410	-0.0493	1.1030	0.6647	5.9381	82.6666	28.2400 
472.546	-0.0098	-0.0068	1.0093	0.5383	5.7733	83.0237	28.2600 
472.564	-0.0195	0.0127	0.9390	0.5768	5.6195	83.3368	28.2400 
472.584	-0.0908	0.0249	0.8594	0.8844	5.5042	83.6115	28.2400 
472.604	-0.1099	0.0122	0.8521	1.3074	5.4437	83.8477	28.2300 
472.624	-0.0859	-0.0220	0.8457	1.5985	5.3943	84.1003	28.2300 
472.644	-0.0562	-0.0361	0.8374	1.5436	5.3119	84.3860	28.2100 
472.664	-0.0308	0.0308	0.9077	1.4063	5.2295	84.5947	28.2300 
472.685	-0.0229	0.0322	0.9272	1.6315	5.1471	84.6881	28.2100 
472.736	-0.0591	0.0386	0.9082	1.8073	5.0537	84.7430	28.2300 
472.738	-0.0933	0.0518	0.9229	2.0874	5.0262	84.7321	28.2100 
472.744	-0.0762	0.0649	0.9409	2.3621	5.0208	84.7156	28.2100 
472.764	-0.0635	0.0977	0.9863	2.4500	4.9933	84.6497	28.2200 
472.784	-0.0674	0.0942	1.0571	2.4664	4.9219	84.5508	28.2100 
472.803	-0.0786	0.0967	1.0791	2.5708	4.8230	84.4574	28.1900 
472.823	-0.0908	0.1372	1.0859	2.7136	4.7241	84.3365	28.2000 
472.843	-0.0918	0.1353	1.0669	2.9169	4.6362	84.1718	28.1900 
472.863	-0.0859	0.1758	1.0435	3.1091	4.5648	84.0674	28.2100 
472.883	-0.0449	0.1792	1.0649	3.3069	4.4714	83.9850	28.1800 
472.930	0.0483	0.0898	1.2090	3.4937	4.3011	83.9301	28.1800 
472.934	0.0664	0.1274	1.2202	3.7408	4.0704	83.7598	28.1800 
472.943	-0.0112	-0.0313	1.1787	4.0814	3.8727	83.4851	28.1700 
472.963	-0.0010	-0.0249	1.1563	4.1693	3.7189	83.2654	28.1800 
472.983	0.0532	-0.0513	1.0259	3.7848	3.6200	83.0676	28.1900 
473.002	0.0518	-0.1548	0.9653	3.1970	3.5980	82.9138	28.2000 
473.022	0.0703	-0.2163	0.9854	2.5928	3.5925	82.9248	28.1800 
473.042	0.0591	-0.1758	1.1724	2.1313	3.6200	82.8479	28.1800 
473.062	-0.0044	-0.0669	1.2358	1.7633	3.7518	82.5677	28.1900 
473.082	-0.0171	-0.0034	1.1763	1.5985	3.9276	82.2821	28.1700 
473.102	-0.0225	0.0098	1.0708	1.5326	4.1199	82.0789	28.1900 
473.122	-0.0059	-0.0107	0.8965	1.4008	4.3121	81.9141	28.1800 
473.177	0.0371	-0.0181	0.8423	1.2085	4.4550	81.7767	28.1700 
473.179	0.0869	-0.0273	0.8540	1.0492	4.5428	81.6119	28.1700 
473.182	0.0728	-0.0122	0.8799	0.9448	4.6033	81.4362	28.1800 
473.202	0.0435	-0.0225	0.8823	0.8405	4.6747	81.2494	28.1700 
473.223	0.0269	0.0034	0.9053	0.7141	4.7736	81.0681	28.1700 
473.242	0.0137	-0.0122	0.9341	0.6372	4.8834	81.0187	28.1700 
473.262	0.0229	-0.0127	0.9507	0.5109	4.9878	81.0297	28.1700 
473.281	0.0547	0.0352	0.9717	0.4779	5.0592	81.0187	28.1600 
473.301	0.0527	0.0806	0.9946	0.6207	5.0867	80.9912	28.1700 
473.321	0.0264	0.0859	0.9927	0.7526	5.1031	80.9637	28.1500 
473.375	0.0181	0.0977	1.0112	0.8789	5.1471	80.9033	28.1700 
473.378	0.0142	0.1084	1.0308	1.0437	5.2350	80.8154	28.1700 
473.381	0.0273	0.1138	1.0405	1.1096	5.3394	80.6946	28.1600 
473.401	0.0586	0.1128	1.0654	1.2360	5.4218	80.5902	28.1600 
473.421	0.0747	0.1108	1.0684	1.3733	5.4547	80.4639	28.1600 
473.440	0.0723	0.1035	1.0532	1.4996	5.4382	80.3101	28.1500 
473.460	0.0454	0.1050	1.0566	1.7029	5.3998	80.1782	28.1400 
473.480	-0.0620	0.1270	1.1563	1.9611	5.4327	80.0903	28.1600 
473.500	-0.1499	0.0410	1.2925	2.1808	5.5536	80.1617	28.1500 
473.521	-0.1650	0.0708	1.2329	2.4280	5.7733	80.3979	28.1400 
473.566	-0.1167	-0.0415	1.1348	2.6697	6.0315	80.7275	28.1500 
473.569	-0.0767	-0.0737	1.0103	2.5433	6.2512	81.0516	28.1500 
473.580	-0.0786	-0.1265	0.9341	2.0599	6.3611	81.3318	28.1500 
473.600	-0.1387	-0.1714	1.0723	1.4557	6.3062	81.7932	28.1600 
473.620	-0.1768	-0.0850	1.2163	1.0657	6.2292	82.3260	28.1400 
473.640	-0.0894	-0.0493	1.1997	0.8954	6.1359	82.8534	28.1400 
473.661	-0.0239	-0.0195	1.1523	0.8624	6.0095	83.3038	28.1400 
473.680	-0.0190	-0.0186	1.0659	0.7416	5.8008	83.6499	28.1400 
473.701	-0.0342	-0.0234	0.9946	0.4724	5.5646	83.9905	28.1300 
473.766	-0.0117	0.0059	0.9028	0.3076	5.3339	84.3311	28.1400 
473.768	-0.0229	0.0000	0.8477	0.2692	5.1141	84.6497	28.1400 
473.768	-0.0479	-0.0137	0.8057	0.2362	4.9438	84.9738	28.1600 
473.779	-0.0542	-0.0024	0.8223	0.2472	4.7845	85.1990	28.1300 
473.799	-0.0630	-0.0034	0.8511	0.3735	4.6033	85.3253	28.1100 
473.819	-0.0757	-0.0010	0.8765	0.3241	4.4440	85.4297	28.1300 
473.839	-0.0796	0.0591	0.9351	0.1703	4.3341	85.5615	28.1200 
473.859	-0.0874	0.0967	0.9565	0.2527	4.2572	85.6384	28.1300 
473.879	-0.0806	0.0723	0.9482	0.5273	4.1968	85.7648	28.1200 
473.898	-0.0771	0.0688	0.9321	0.7965	4.1254	85.9076	28.1100 
473.918	-0.0664	0.1045	0.9697	1.1316	4.0759	85.9900	28.1200 
473.958	-0.0488	0.0933	1.0049	1.4941	4.0265	86.0504	28.1100 
473.961	-0.0396	0.1250	1.0708	1.8677	3.9221	86.0834	28.1100 
473.978	-0.0688	0.1226	1.0830	2.1973	3.8068	86.0834	28.1000 
473.998	-0.1001	0.1450	1.0767	2.4829	3.6969	86.1163	28.1100 
474.018	-0.0933	0.1582	1.0781	2.7191	3.5925	86.1603	28.1000 
474.038	-0.0034	0.1387	1.2173	2.8729	3.4827	86.2427	28.1100 
474.058	0.0942	0.1089	1.3101	3.0652	3.3179	86.2976	28.1200 
474.078	0.0596	0.0996	1.2017	3.4277	3.0597	86.1713	28.0900 
474.100	-0.0146	-0.0049	1.1582	3.6639	2.8070	86.0944	28.0900 
474.152	0.0293	-0.0142	1.0762	3.5651	2.6312	86.0779	28.1000 
474.155	0.0562	-0.0557	0.9912	3.3948	2.5433	86.0779	28.1200 
474.157	0.0981	-0.1982	0.9814	2.9773	2.5104	86.1273	28.1100 
474.177	0.1206	-0.1816	1.0713	2.4609	2.4774	86.1273	28.1100 
474.198	0.0376	-0.0737	1.2017	2.0380	2.5598	85.9845	28.1000 
474.217	-0.0327	-0.0098	1.2012	1.7853	2.7356	85.7977	28.1100 
474.236	-0.0430	0.0464	1.0986	1.6425	2.9938	85.6824	28.1100 
474.257	-0.0229	0.0112	0.9702	1.4502	3.2959	85.5725	28.1000 
474.277	0.0332	-0.0127	0.8340	1.2030	3.5925	85.4791	28.1000 
474.297	0.0630	-0.0254	0.8154	1.0272	3.8452	85.3802	28.1100 
474.341	0.0576	-0.0303	0.8267	0.9393	4.0485	85.2979	28.0900 
474.346	0.0342	-0.0220	0.8604	0.8514	4.2297	85.2649	28.1100 
474.356	0.0278	-0.0156	0.8901	0.7196	4.4165	85.2704	28.1100 
474.376	0.0190	-0.0200	0.9336	0.5878	4.6198	85.3583	28.1100 
474.397	0.0264	-0.0098	0.9697	0.4230	4.8120	85.5176	28.1000 
474.416	0.0659	0.0386	1.0044	0.3186	4.9823	85.6384	28.0900 
474.436	0.0669	0.0352	1.0088	0.3790	5.1141	85.7428	28.1000 
474.456	0.0469	0.0571	0.9937	0.5768	5.2185	85.8362	28.1000 
474.475	0.0405	0.0742	1.0020	0.7031	5.3394	85.8966	28.1100 
474.496	0.0259	0.0874	1.0127	0.7965	5.4712	85.9900	28.1000 
474.516	-0.0020	0.1167	1.0210	0.9174	5.6305	86.1383	28.0800 
474.535	0.0059	0.1113	1.0488	1.0602	5.7898	86.3361	28.1100 
474.577	0.0469	0.0981	1.0313	1.3184	5.9326	86.5558	28.1000 
474.579	0.0913	0.0557	1.0024	1.5546	6.0590	86.6656	28.1000 
474.596	0.0786	0.0688	1.0156	1.6644	6.1743	86.6876	28.1000 
474.615	0.0098	0.1523	1.1187	1.7798	6.2622	86.6382	28.1000 
474.635	-0.0728	0.1167	1.2441	1.9446	6.3446	86.6602	28.1000 
474.655	-0.1167	0.1216	1.2856	2.1808	6.4050	86.8195	28.0900 
474.675	-0.1377	0.0005	1.2354	2.4115	6.4819	87.0721	28.0900 
474.695	-0.2236	-0.0781	1.0977	2.4225	6.5918	87.4347	28.0800 
474.717	-0.2549	-0.0918	0.9746	2.1259	6.7456	87.8412	28.0800 
474.771	-0.2368	-0.1514	0.9414	1.5381	6.8774	88.3466	28.0800 
474.774	-0.2393	-0.1182	1.1167	0.9888	6.9269	88.9343	28.0800 
474.777	-0.1431	-0.0649	1.2363	0.7361	6.8665	89.5221	28.0800 
474.795	-0.0728	-0.0449	1.1655	0.6152	6.7566	90.0330	28.0900 
474.814	-0.0430	-0.0020	1.0498	0.4669	6.5863	90.4395	28.0800 
474.837	-0.0493	0.0117	0.9741	0.2911	6.3885	90.7581	28.0700 
474.854	-0.0767	0.0264	0.8896	0.2142	6.1908	91.0382	28.0700 
474.873	-0.0957	0.0249	0.8340	0.2252	6.0205	91.3074	28.0700 
474.895	-0.1284	0.0098	0.8135	0.4340	5.8722	91.5820	28.0800 
474.914	-0.1284	0.0190	0.8281	0.7141	5.7568	91.8567	28.0800 
474.959	-0.1113	0.0298	0.8833	0.7690	5.6525	92.1039	28.0600 
474.960	-0.1040	0.0054	0.9009	0.6152	5.5316	92.3676	28.0600 
474.974	-0.1084	0.0332	0.9341	0.4175	5.4163	92.5928	28.0700 
474.993	-0.0991	0.0229	0.9541	0.4340	5.3229	92.8180	28.0600 
475.013	-0.1099	0.0977	0.9922	0.4340	5.2515	92.9663	28.0500 
475.033	-0.1001	0.1025	0.9746	0.5493	5.1965	93.0872	28.0500 
475.053	-0.0908	0.1147	0.9814	0.8459	5.1361	93.2410	28.0600 
475.073	-0.0835	0.1396	0.9785	1.0107	5.0427	93.4003	28.0600 
475.093	-0.0557	0.1216	0.9761	1.1755	4.8834	93.5925	28.0300 
475.114	-0.0464	0.1260	0.9858	1.4063	4.6582	93.7958	28.0500 
475.133	-0.0723	0.1060	1.0093	1.6040	4.4330	93.9661	28.0500 
475.153	-0.0972	0.1143	1.0386	1.7249	4.2407	94.1144	28.0400 
475.198	-0.1284	0.1406	1.0762	1.7578	4.0924	94.2297	28.0400 
475.200	-0.1167	0.1553	1.0918	1.8018	3.9441	94.3616	28.0500 
475.212	-0.0439	0.1191	1.1865	1.8787	3.7573	94.4989	28.0400 
475.232	0.0303	0.0908	1.2944	1.9830	3.4882	94.6582	28.0500 
475.252	0.0273	0.0757	1.2593	2.2028	3.1531	94.7791	28.0600 
475.272	-0.0210	-0.0273	1.2368	2.3456	2.8290	94.9768	28.0400 
475.292	0.0151	-0.0234	1.1162	2.2742	2.6093	95.1691	28.0500 
475.312	0.0479	-0.0581	0.9766	1.9940	2.4884	95.3119	28.0400 
475.332	0.0718	-0.2461	0.9336	1.5601	2.4390	95.5646	28.0600 
475.384	0.0620	-0.1885	1.0854	1.1700	2.4225	95.8173	28.0600 
475.387	-0.0503	-0.0991	1.2290	0.8679	2.5433	95.9106	28.0500 
475.392	-0.0693	-0.0469	1.2183	0.7416	2.7356	96.0425	28.0500 
475.411	-0.0591	0.0161	1.1011	0.7416	2.9773	96.2567	28.0400 
475.431	-0.0557	0.0000	0.9951	0.7361	3.2355	96.5588	28.0400 
475.451	0.0000	-0.0313	0.8755	0.6976	3.4607	96.9928	28.0400 
475.471	0.0288	-0.0483	0.8447	0.6207	3.6255	97.4707	28.0400 
475.491	0.0449	-0.0386	0.8398	0.6647	3.7299	97.9651	28.0400 
475.511	0.0273	-0.0444	0.8394	0.8185	3.8123	98.4705	28.0500 
475.532	0.0103	-0.0166	0.8848	0.9503	3.9386	98.9429	28.0400 
475.576	0.0005	-0.0264	0.9180	1.0327	4.0485	99.5361	28.0200 
475.578	-0.0020	-0.0190	0.9712	1.0217	4.1473	100.2228	28.0200 
475.591	0.0000	0.0034	1.0161	0.9998	4.2462	100.9973	28.0600 
475.611	0.0088	0.0566	1.0229	1.0382	4.3451	101.7883	28.0400 
475.630	0.0088	0.0732	1.0151	1.1700	4.4220	102.6123	28.0500 
475.650	0.0132	0.0850	1.0122	1.3239	4.4879	103.4802	28.0200 
475.670	0.0015	0.0889	1.0005	1.5326	4.5758	104.3866	28.0400 
475.690	-0.0093	0.0962	1.0166	1.7249	4.7076	105.3699	28.0400 
475.710	-0.0239	0.1328	1.0386	1.8842	4.8615	106.3916	28.0500 
475.775	-0.0327	0.1299	1.0361	2.0325	5.0098	107.4847	28.0300 
475.781	0.0010	0.0884	1.0269	2.2028	5.1196	108.6768	28.0300 
475.781	0.0347	0.0835	1.0386	2.3511	5.1636	109.9017	28.0500 
475.790	0.0620	0.0933	1.0430	2.4280	5.1526	111.0828	28.0400 
475.810	0.0566	0.1270	1.0430	2.4664	5.0977	112.2089	28.0500 
475.830	0.0142	0.1470	1.0684	2.5433	4.9823	113.3569	28.0400 
475.850	-0.0269	0.1089	1.1812	2.5873	4.8065	114.6368	28.0400 
475.869	-0.0991	0.1074	1.2173	2.6532	4.5758	116.0870	28.0300 
475.889	-0.1509	0.0391	1.1816	2.8290	4.3616	117.6746	28.0300 
475.909	-0.1768	-0.0146	1.1675	2.9608	4.1748	119.4763	28.0400 
475.971	-0.2085	0.0044	1.0542	2.9114	4.0375	121.3330	28.0400 
475.978	-0.2266	-0.1099	0.9282	2.5159	3.9386	123.3215	28.0500 
475.978	-0.2168	-0.1440	1.0063	1.9446	3.8287	125.3870	28.0600 
475.989	-0.1636	-0.0732	1.1616	1.5161	3.6804	127.3920	28.0400 
476.009	-0.1606	-0.0454	1.1689	1.2799	3.5156	129.2871	28.0600 
476.029	-0.1353	-0.0269	1.0884	1.1975	3.3563	131.1218	28.0400 
476.049	-0.1333	-0.0122	1.0239	1.1096	3.2190	132.9291	28.0400 
476.068	-0.1274	0.0181	0.9336	1.0217	3.1311	134.6814	28.0400 
476.088	-0.1357	0.0186	0.8799	0.9888	3.0762	136.4392	28.0400 
476.108	-0.1372	-0.0005	0.8447	1.0107	3.0927	138.2520	28.0200 
476.128	-0.1299	-0.0024	0.8589	1.0602	3.1641	140.0208	28.0300 
476.148	-0.1533	-0.0142	0.9004	1.1206	3.3124	141.7786	28.0500 
476.168	-0.1646	-0.0195	0.9595	1.0986	3.5046	143.5529	28.0400 
476.217	-0.1318	-0.0103	1.0107	0.8075	3.7134	145.2942	28.0300 
476.220	-0.1006	0.0439	1.0313	0.6262	3.8727	146.9037	28.0200 
476.228	-0.0850	0.0430	0.9854	0.7306	3.9661	148.4253	28.0300 
476.248	-0.0889	0.0581	0.9756	0.7361	4.0320	149.8810	28.0300 
476.268	-0.0879	0.0684	0.9619	0.9778	4.1089	151.2488	28.0200 
476.287	-0.1099	0.0430	0.9814	1.1920	4.1913	152.5891	28.0400 
476.308	-0.1104	0.0825	1.0288	1.3184	4.2682	153.8525	28.0400 
476.327	-0.1157	0.0996	1.0249	1.4063	4.3506	154.9896	28.0500 
476.347	-0.1343	0.1084	1.0181	1.4502	4.4165	156.0663	28.0400 
476.367	-0.1274	0.1157	1.0176	1.4886	4.4659	157.0660	28.0400 
476.406	-0.1147	0.1040	1.0547	1.5875	4.4824	157.9889	28.0500 
476.408	-0.0967	0.1343	1.0933	1.8567	4.4824	158.7579	28.0200 
476.427	-0.0918	0.1304	1.0908	2.3016	4.4550	159.3732	28.0300 
476.447	-0.1162	0.1353	1.0757	2.5159	4.3506	160.0104	28.0200 
476.467	-0.1074	0.1167	1.0566	2.7686	4.1913	160.6641	28.0400 
476.487	-0.0542	0.1084	1.1240	2.9388	4.0155	161.2518	28.0400 
476.506	0.0078	0.1021	1.2412	3.0872	3.8013	161.6254	28.0300 
476.526	-0.0527	0.1035	1.2148	3.2355	3.5980	161.9495	28.0400 
476.546	-0.1030	0.0308	1.1323	3.4058	3.4497	162.4219	28.0500 
476.597	-0.0435	0.0264	1.0645	3.5431	3.3508	162.8558	28.0500 
476.600	0.0083	-0.0986	0.9580	3.6694	3.3069	163.1140	28.0500 
476.609	0.0615	-0.1465	0.9243	3.5541	3.2794	163.2843	28.0500 
476.626	0.1235	-0.1704	1.0020	3.2410	3.2410	163.3777	28.0300 
476.646	0.0884	-0.1758	1.1079	2.9114	3.2135	163.4491	28.0600 
476.666	-0.0234	-0.0884	1.2085	2.6038	3.2355	163.7018	28.0500 
476.686	-0.0244	-0.0586	1.1880	2.3016	3.3289	164.0588	28.0300 
476.707	0.0112	-0.0649	1.0557	2.1478	3.4827	164.4324	28.0400 
476.726	0.0347	-0.0513	0.9775	1.9995	3.6584	164.7729	28.0500 
476.750	0.0659	0.0039	0.9033	1.8402	3.7958	165.0201	28.0500 
476.791	0.0718	0.0093	0.8916	1.8292	3.9001	165.2179	28.0500 
476.795	0.0444	-0.0034	0.8770	1.8896	3.9825	165.4376	28.0500 
476.805	0.0405	-0.0186	0.8726	1.9830	4.0594	165.6793	28.0500 
476.825	0.0498	0.0029	0.8901	2.0050	4.1418	165.8661	28.0500 
476.845	0.0601	0.0195	0.9355	1.9611	4.2242	166.0144	28.0500 
476.865	0.0430	0.0239	0.9521	1.9611	4.2902	166.2341	28.0500 
476.885	0.0264	0.0483	0.9785	1.9885	4.3396	166.5637	28.0500 
476.905	0.0254	0.0630	0.9927	2.0160	4.3781	166.8933	28.0400 
476.925	0.0361	0.0874	0.9834	2.3346	4.4055	167.1405	28.0600 
476.944	0.0210	0.0723	0.9692	2.5433	4.4330	167.4371	28.0500 
476.964	0.0215	0.0859	0.9829	2.6532	4.4934	167.7557	28.0500 
476.984	0.0303	0.0815	0.9985	2.6917	4.6143	168.0304	28.0500 
477.032	0.0527	0.1265	1.0376	2.5873	4.7791	168.2172	28.0500 
477.036	0.0688	0.1250	1.0801	2.5269	4.9329	168.3380	28.0700 
477.044	0.0933	0.1235	1.0728	2.5983	5.0372	168.3655	28.0500 
477.064	0.0913	0.1021	1.0557	2.7081	5.0867	168.3325	28.0700 
477.084	0.0537	0.0708	1.0464	2.8125	5.1141	168.3270	28.0600 
477.104	0.0107	0.1069	1.0635	2.9004	5.1855	168.3600	28.0600 
477.124	-0.0591	0.1592	1.1563	2.9114	5.3558	168.4753	28.0600 
477.144	-0.0845	0.1377	1.2500	2.8235	5.5920	168.6951	28.0500 
477.163	-0.0386	0.1201	1.2729	2.7301	5.8612	168.9423	28.0500 
477.184	0.0278	0.0103	1.2188	2.7521	6.0919	169.0137	28.0600 
477.219	0.0049	-0.0845	1.0977	2.7521	6.2183	168.9752	28.0700 
477.223	-0.0625	-0.0645	0.9956	2.5323	6.3171	168.9313	28.0500 
477.243	-0.1504	-0.1602	0.8931	1.9281	6.3940	169.0082	28.0600 
477.263	-0.2100	-0.1895	0.9736	1.4063	6.4160	169.3158	28.0700 
477.283	-0.2002	-0.1553	1.1328	1.0547	6.3831	169.8431	28.0700 
477.303	-0.1157	-0.1279	1.1646	0.8295	6.3171	170.3375	28.0600 
477.324	-0.0371	-0.0723	1.1519	0.6702	6.2402	170.6671	28.0600 
477.343	-0.0513	-0.0527	1.0986	0.4340	6.1633	170.9253	28.0400 
477.362	-0.0552	-0.0342	1.0132	0.3076	6.0699	171.2109	28.0600 
477.408	-0.0479	-0.0156	0.9497	0.0604	5.9711	171.5240	28.0600 
477.410	-0.0493	0.0015	0.8789	0.0604	5.9052	171.8427	28.0500 
477.422	-0.0801	0.0107	0.8306	0.0934	5.8667	172.2217	28.0600 
477.442	-0.1035	0.0244	0.8149	0.4944	5.8557	172.5513	28.0700 
477.462	-0.0903	-0.0190	0.8130	0.5713	5.8612	172.9358	28.0700 
477.482	-0.0366	0.0166	0.8857	0.3351	5.8942	173.2874	28.0600 
477.502	-0.0454	0.0220	0.9160	0.2032	5.9052	173.5510	28.0700 
477.522	-0.0649	0.0645	0.9717	0.3680	5.9271	173.8477	28.0700 
477.542	-0.0938	0.0542	0.9780	0.7526	5.9436	174.1937	28.0800 
477.604	-0.0908	0.0898	0.9902	1.2085	5.9601	174.5288	28.0800 
477.608	-0.0684	0.0884	0.9907	1.6315	5.9656	174.8309	28.0500 
477.608	-0.0664	0.0957	0.9907	1.9995	5.9271	175.0671	28.0600 
477.621	-0.0601	0.0947	1.0444	2.5049	5.8557	175.2319	28.0600 
477.641	-0.1045	0.0791	1.0977	2.8619	5.7184	175.3693	28.0500 
477.661	-0.1592	0.1157	1.1470	3.1036	5.5756	175.5121	28.0500 
477.681	-0.1792	0.1528	1.1294	3.2684	5.4767	175.7648	28.0500 
477.701	-0.1563	0.1890	1.1084	3.4662	5.4108	176.0504	28.0300 
477.721	-0.0405	0.1514	1.1890	3.8123	5.3119	176.2592	28.0500 
477.741	0.0474	0.1265	1.2510	4.1968	5.0922	176.2811	28.0500 
477.761	0.0298	0.0967	1.1548	4.6527	4.8285	176.1987	28.0400 
477.781	0.0054	0.0137	1.1079	5.0812	4.5923	176.1877	28.0500 
477.801	0.0571	-0.0435	1.0234	5.1965	4.4385	176.1163	28.0500 
477.846	0.0938	-0.0723	0.9438	5.0153	4.3616	175.9296	28.0600 
477.848	0.1338	-0.1846	0.9238	4.6857	4.3726	175.6769	28.0500 
477.861	0.1240	-0.1187	1.0356	4.3671	4.4110	175.3528	28.0500 
477.881	-0.0259	-0.0444	1.1904	3.8727	4.5483	175.0616	28.0500 
477.900	-0.0933	0.0063	1.2031	3.4387	4.7845	174.9298	28.0400 
477.920	-0.0684	0.0459	1.0854	3.1531	5.1031	174.9463	28.0400 
477.939	-0.0137	0.0503	0.9751	2.9443	5.4602	174.9628	28.0400 
477.962	0.0459	0.0063	0.8120	2.6917	5.7623	174.8969	28.0500 
477.980	0.0474	-0.0288	0.8062	2.3730	6.0315	174.8309	28.0400 
478.036	0.0337	-0.0112	0.8774	2.1588	6.2842	174.8199	28.0500 
478.038	0.0410	-0.0215	0.8936	1.9171	6.4764	174.8309	28.0200 
478.040	0.0552	-0.0127	0.9307	1.5765	6.6193	174.8090	28.0400 
478.059	0.0576	0.0112	0.9531	1.2634	6.7346	174.7650	28.0200 
478.079	0.0425	0.0342	0.9844	0.9998	6.8335	174.7595	28.0400 
478.100	0.0068	0.0498	1.0039	0.8020	6.9269	174.7650	28.0500 
478.119	-0.0020	0.0459	1.0078	0.7581	7.0093	174.8309	28.0600 
478.139	0.0151	0.0688	1.0259	0.8130	7.0477	174.9408	28.0300 
478.158	0.0186	0.0664	1.0410	0.8899	7.0532	175.0616	28.0500 
478.179	0.0210	0.0635	1.0288	0.9283	7.0642	175.1880	28.0400 
478.223	0.0083	0.0918	1.0386	0.9943	7.1082	175.3528	28.0400 
478.226	0.0029	0.0835	1.0874	1.0602	7.1960	175.5780	28.0400 
478.238	0.0557	0.0713	1.0688	1.2579	7.2784	175.7098	28.0300 
478.258	0.1021	0.0327	1.0264	1.5271	7.3279	175.6384	28.0200 
478.279	0.0693	0.0981	1.0503	1.6809	7.3663	175.4736	28.0300 
478.298	-0.0996	0.0396	1.2388	1.8787	7.4323	175.5066	28.0300 
478.318	-0.1680	0.0635	1.3232	2.2742	7.5201	175.8087	28.0300 
478.338	-0.2070	-0.0308	1.1963	2.9059	7.6520	176.1658	28.0200 
478.358	-0.1875	-0.0386	1.0957	3.2410	7.7948	176.5338	28.0200 
478.412	-0.1768	-0.0972	0.9575	2.9114	7.9266	176.8085	28.0200 
478.413	-0.1768	-0.1353	0.9648	2.4884	7.9596	177.0996	28.0200 
478.418	-0.2036	-0.0933	1.1626	1.9556	7.8333	177.5885	28.0300 
478.437	-0.1719	-0.0649	1.2275	1.6534	7.6904	178.1378	28.0300 
478.459	-0.0728	-0.0386	1.1426	1.6315	7.5421	178.5992	28.0400 
478.478	-0.0474	0.0005	1.0723	1.6040	7.3499	178.9728	28.0300 
478.497	-0.0762	-0.0356	0.9780	1.4722	7.1246	179.3024	28.0200 
478.517	-0.0981	-0.0117	0.9380	1.3403	6.9543	179.6539	28.0200 
478.537	-0.0908	0.0112	0.8745	1.4337	6.8500	179.9890	28.0300 
478.557	-0.0898	0.0288	0.8545	1.6260	6.7676	-179.7473	28.0200 
478.581	-0.1133	0.0361	0.8252	1.7468	6.7017	-179.5221	28.0300 
478.597	-0.0991	0.0674	0.8384	2.0435	6.6138	-179.4067	28.0200 
478.664	-0.0903	0.0225	0.8486	2.2467	6.5149	-179.2804	28.0200 
478.666	-0.0923	0.0400	0.8682	2.1368	6.4105	-179.1321	28.0200 
478.666	-0.1030	0.1294	0.9141	2.1149	6.2952	-178.9783	28.0000 
478.676	-0.1260	0.0791	0.9087	2.4115	6.2128	-178.7531	28.0200 
478.697	-0.1108	0.0757	0.9595	2.4554	6.1304	-178.5663	28.0200 
478.717	-0.0913	0.1201	1.0000	2.6697	6.0919	-178.5168	28.0200 
478.736	-0.0693	0.1279	1.0513	2.7740	6.0260	-178.5223	28.0200 
478.756	-0.0654	0.1489	1.0796	2.8400	5.9106	-178.5663	28.0100 
478.778	-0.1055	0.1543	1.0708	3.0322	5.7623	-178.5883	28.0100 
478.796	-0.1274	0.1592	1.0562	3.3069	5.6085	-178.5278	28.0300 
478.852	-0.1558	0.1665	1.0381	3.5046	5.4767	-178.3685	28.0300 
478.854	-0.1602	0.1978	1.0405	3.6090	5.3558	-178.0939	28.0200 
478.856	-0.0918	0.1655	1.1631	3.7463	5.2295	-177.8137	28.0200 
478.876	-0.0015	0.1270	1.2739	3.9990	5.0317	-177.7753	28.0200 
478.895	0.0049	0.0845	1.2178	4.3726	4.7900	-177.8577	28.0300 
478.916	0.0068	-0.0195	1.1948	4.6582	4.5703	-177.9510	28.0100 
478.936	0.0781	-0.0098	1.0713	4.7296	4.3945	-178.0884	28.0200 
478.957	0.0825	-0.1108	0.9653	4.4879	4.3011	-178.2642	28.0200 
478.978	0.0854	-0.1875	1.0093	3.8892	4.2737	-178.4839	28.0200 
478.995	0.0791	-0.1123	1.1519	3.2080	4.2902	-178.7585	28.0200 
479.039	-0.0386	-0.0054	1.2695	2.7301	4.3726	-179.0167	28.0200 
479.041	-0.0967	0.0508	1.2065	2.5488	4.5209	-179.1486	28.0300 
479.055	-0.0552	0.0391	1.0142	2.4500	4.7461	-179.1541	28.0200 
479.075	-0.0244	0.0205	0.8755	2.2302	5.0317	-179.2310	28.0200 
479.095	0.0059	0.0039	0.7793	1.9501	5.3229	-179.3518	28.0000 
479.114	0.0249	-0.0005	0.8042	1.7578	5.5536	-179.4177	28.0300 
479.135	0.0278	-0.0088	0.8555	1.7194	5.7239	-179.4342	28.0200 
479.155	0.0264	-0.0039	0.8740	1.6425	5.8722	-179.4562	28.0200 
479.174	0.0376	-0.0054	0.8955	1.4392	6.0205	-179.5166	28.0300 
479.225	0.0361	-0.0161	0.9331	1.1591	6.1414	-179.5276	28.0200 
479.228	0.0215	0.0308	1.0044	0.7581	6.2347	-179.4617	28.0100 
479.234	0.0376	0.0698	1.0356	0.4889	6.3007	-179.4397	28.0300 
479.254	0.0420	0.0913	1.0205	0.4559	6.2952	-179.4177	28.0300 
479.274	0.0200	0.0977	1.0059	0.6152	6.2622	-179.3958	28.0100 
479.294	-0.0034	0.1357	1.0190	0.7800	6.2402	-179.3243	28.0400 
479.313	-0.0249	0.1309	1.0234	0.9229	6.2567	-179.1760	28.0200 
479.338	-0.0269	0.1265	1.0444	1.0602	6.3336	-178.9893	28.0400 
479.353	0.0391	0.0962	1.0630	1.1206	6.4270	-178.8739	28.0200 
479.373	0.0947	0.0962	1.0522	1.1591	6.5039	-178.9838	28.0200 
479.395	0.1084	0.0615	1.0361	1.1865	6.5533	-179.3243	27.9900 
479.414	0.0503	0.1572	1.0854	1.3074	6.5753	-179.6484	28.0200 
479.466	-0.0737	0.2261	1.1602	1.5875	6.6577	-179.7308	28.0200 
479.468	-0.1343	0.1660	1.2305	1.8457	6.8115	-179.6045	28.0300 
479.473	-0.1250	0.0947	1.1890	2.1533	6.9983	-179.3573	28.0300 
479.493	-0.1274	-0.0361	1.1187	2.3950	7.2180	-179.1376	28.0200 
479.513	-0.1655	-0.1436	0.9727	2.2632	7.4432	-178.9343	28.0200 
479.533	-0.2119	-0.1919	0.9351	1.5491	7.6904	-178.7695	28.0200 
479.553	-0.2002	-0.1743	1.0723	0.6537	7.8497	-178.5883	28.0300 
479.573	-0.1758	-0.1147	1.2363	0.0439	7.8662	-178.2861	28.0200 
479.593	-0.0874	-0.1328	1.2803	-0.2911	7.7454	-177.8961	28.0300 
479.613	-0.0498	-0.0693	1.2271	-0.4724	7.5586	-177.6050	28.0300 
479.659	-0.0498	-0.0156	1.0762	-0.7306	7.3279	-177.3907	28.0300 
479.660	-0.0610	0.0034	0.9775	-0.8899	7.0972	-177.1930	28.0200 
479.672	-0.0781	0.0010	0.8818	-1.0107	6.8994	-176.9293	28.0200 
479.691	-0.0815	0.0005	0.8369	-1.1096	6.7126	-176.6547	28.0300 
479.711	-0.0903	-0.0156	0.8101	-0.9174	6.5149	-176.3855	28.0000 
479.732	-0.0947	0.0127	0.8125	-0.5383	6.3062	-176.1768	28.0100 
479.752	-0.1191	-0.0068	0.8096	-0.3296	6.1414	-175.9515	28.0000 
479.771	-0.0864	-0.0122	0.8506	-0.4944	6.0315	-175.6989	28.0200 
479.794	-0.0850	0.0361	0.8970	-0.6647	5.9326	-175.5231	28.0100 
479.850	-0.0889	0.0459	0.9414	-0.6647	5.8502	-175.3473	28.0200 
479.851	-0.0923	0.0732	0.9521	-0.4779	5.7733	-175.1715	28.0100 
479.851	-0.1011	0.0986	0.9629	-0.2692	5.7184	-175.0122	28.0200 
479.871	-0.0874	0.1060	0.9717	0.0220	5.6580	-174.8035	28.0000 
479.891	-0.0815	0.0981	0.9717	0.2637	5.5591	-174.6112	28.0100 
479.911	-0.0654	0.1040	1.0288	0.4889	5.4108	-174.4684	28.0000 
479.931	-0.0752	0.1094	1.0767	0.6921	5.2240	-174.3695	28.0100 
479.951	-0.1074	0.1387	1.1074	0.9064	5.0372	-174.2487	27.9800 
479.971	-0.1113	0.1465	1.1040	1.0876	4.8669	-174.0839	27.9900 
479.991	-0.0815	0.1719	1.1133	1.2250	4.6967	-173.8861	27.9900 
480.042	-0.0322	0.1543	1.2046	1.3898	4.4989	-173.7598	27.9900 
480.044	0.0264	0.1118	1.3726	1.5765	4.2517	-173.7598	27.9900 
480.051	0.0005	0.1060	1.3213	1.8347	3.9935	-173.8092	27.9900 
480.071	-0.0234	-0.0190	1.1631	2.0380	3.7903	-173.8806	28.0000 
480.090	0.0156	-0.0342	1.0337	1.9446	3.6969	-174.0619	28.0000 
480.110	0.0610	-0.1084	0.8965	1.4392	3.7134	-174.3750	27.9900 
480.130	0.0962	-0.2041	0.8979	0.7251	3.7518	-174.7650	28.0100 
480.150	0.1011	-0.2148	1.0830	0.1538	3.7958	-175.1935	27.9900 
480.170	0.0293	-0.1343	1.2051	-0.1703	3.9276	-175.6110	28.0000 
480.190	-0.0640	-0.0132	1.2275	-0.3845	4.1473	-175.9241	28.0000 
480.209	-0.0547	0.0054	1.1382	-0.5328	4.3890	-176.0559	27.9900 
480.230	-0.0142	0.0088	0.9570	-0.7745	4.6362	-176.1548	27.9900 
480.277	0.0254	0.0005	0.8506	-1.0547	4.8779	-176.3196	28.0000 
480.279	0.0532	-0.0391	0.8091	-1.1755	5.1086	-176.5393	27.9900 
480.289	0.0513	-0.0283	0.8228	-1.1481	5.2844	-176.7920	28.0100 
480.309	0.0488	-0.0112	0.8398	-1.1426	5.4108	-177.0886	27.9900 
480.329	0.0386	0.0005	0.8638	-1.1536	5.5646	-177.4127	28.0100 
480.349	0.0293	0.0063	0.9321	-1.3019	5.7349	-177.6709	28.0100 
480.369	0.0117	0.0142	0.9658	-1.4008	5.9106	-177.8082	27.9800 
480.389	0.0088	0.0459	0.9746	-1.4996	6.0699	-177.8741	27.9800 
480.410	0.0054	0.0625	0.9619	-1.5051	6.1908	-177.9291	27.9900 
480.429	0.0068	0.0796	0.9434	-1.3074	6.2842	-177.9071	27.9900 
480.472	0.0093	0.0645	0.9556	-1.1865	6.3666	-177.8796	27.9900 
480.474	0.0078	0.1094	1.0449	-1.0931	6.4545	-177.8467	28.0000 
480.488	0.0127	0.1328	1.1001	-1.0547	6.5479	-177.8082	28.0000 
480.508	0.0596	0.1045	1.0869	-0.9393	6.5973	-177.8741	28.0000 
480.528	0.0986	0.0591	1.0479	-0.7031	6.5973	-178.0994	27.9900 
480.548	0.0664	0.0669	1.0439	-0.5658	6.5643	-178.4399	27.9900 
480.568	-0.0244	0.2017	1.1279	-0.4504	6.5588	-178.7201	27.9900 
480.588	-0.1479	0.1724	1.2661	-0.3351	6.6522	-178.7091	27.9900 
480.611	-0.1631	0.0728	1.3569	-0.1428	6.7676	-178.4619	27.9700 
480.663	-0.1182	-0.0020	1.2656	0.3076	6.8719	-178.1598	27.9900 
480.666	-0.1030	-0.1040	1.0591	0.5164	6.9928	-177.9840	28.0000 
480.668	-0.1343	-0.1597	0.9692	0.2417	7.1082	-177.8467	27.9900 
480.688	-0.1694	-0.2090	0.9907	-0.4669	7.1521	-177.7478	27.9900 
480.707	-0.1880	-0.1631	1.1270	-1.1041	7.1191	-177.5171	27.9900 
480.727	-0.1655	-0.1362	1.2637	-1.4227	7.0587	-177.1930	27.9900 
480.747	-0.0767	-0.0967	1.2227	-1.5985	6.9543	-176.8799	27.9900 
480.767	-0.0522	-0.0244	1.1323	-1.6425	6.8060	-176.6821	27.9900 
480.787	-0.0615	-0.0161	1.0552	-1.8567	6.6028	-176.4624	27.9900 
480.807	-0.0615	-0.0347	0.9224	-1.8842	6.3831	-176.1932	27.9800 
480.852	-0.0552	-0.0156	0.8594	-1.8896	6.1853	-175.9076	27.9700 
480.854	-0.0522	-0.0063	0.8130	-1.9226	6.0205	-175.6824	27.9700 
480.866	-0.0732	-0.0342	0.8164	-1.9061	5.9052	-175.4626	27.9800 
480.886	-0.0898	0.0249	0.8164	-1.7084	5.8063	-175.2979	27.9700 
480.906	-0.0942	0.0054	0.8267	-1.6479	5.7349	-175.1660	27.9700 
480.926	-0.0874	-0.0229	0.8784	-1.7743	5.6854	-174.9957	27.9600 
480.946	-0.0889	0.0640	0.9004	-1.8896	5.6250	-174.8309	27.9700 
480.966	-0.0898	0.0503	0.9263	-1.6040	5.5920	-174.6387	27.9700 
480.986	-0.0864	0.0293	0.9116	-1.4447	5.5151	-174.4189	27.9700 
481.006	-0.0762	0.0850	0.9546	-0.9998	5.4327	-174.2377	27.9600 
481.026	-0.0835	0.0615	0.9995	-0.6152	5.3284	-174.0289	27.9700 
481.046	-0.0649	0.1143	1.1182	-0.2911	5.1636	-173.8971	27.9600 
481.090	-0.0625	0.1006	1.1479	0.0549	4.9823	-173.8367	27.9700 
481.093	-0.1064	0.1104	1.0786	0.4669	4.7900	-173.7598	27.9600 
481.106	-0.1289	0.1299	1.0371	0.7855	4.6307	-173.5620	27.9800 
481.126	-0.1001	0.1704	1.1025	0.9503	4.4769	-173.3038	27.9600 
481.146	-0.0327	0.0811	1.2568	1.1591	4.2847	-173.1885	27.9600 
481.165	0.0562	0.1553	1.2466	1.6919	4.0155	-173.3862	27.9600 
481.185	0.0244	-0.0098	1.1509	2.3181	3.7518	-173.6115	27.9700 
481.205	0.1021	-0.0913	1.0786	2.5983	3.5321	-173.8916	27.9600 
481.225	0.1211	-0.1484	1.0669	2.4609	3.4003	-174.2322	27.9600 
481.279	0.1025	-0.1514	1.0928	2.0380	3.3728	-174.5453	27.9800 
481.282	0.0762	-0.1626	1.1294	1.4172	3.4003	-174.8529	27.9700 
481.286	-0.0264	-0.0894	1.2256	0.8295	3.5156	-175.1385	27.9600 
481.305	-0.0698	-0.0059	1.2285	0.4889	3.7683	-175.3528	27.9600 
481.324	-0.0186	0.0435	1.0811	0.3516	4.0704	-175.5176	27.9600 
481.345	0.0029	0.0117	0.9087	0.2032	4.3890	-175.7263	27.9600 
481.364	0.0264	-0.0029	0.7642	0.0165	4.6747	-175.9515	27.9700 
481.384	0.0400	-0.0122	0.7617	-0.1593	4.9109	-176.1328	27.9700 
481.404	0.0361	-0.0117	0.8125	-0.1648	5.1086	-176.2921	27.9600 
481.426	0.0356	-0.0068	0.8311	-0.1648	5.2789	-176.4569	27.9500 
481.471	0.0435	-0.0161	0.8726	-0.2032	5.4272	-176.6162	27.9300 
481.474	0.0283	-0.0132	0.9053	-0.2417	5.5481	-176.6492	27.9400 
481.484	0.0337	0.0117	0.9438	-0.3845	5.6580	-176.6052	27.9400 
481.504	0.0303	0.0361	0.9697	-0.5054	5.7513	-176.5393	27.9500 
481.524	0.0542	0.0928	1.0205	-0.5493	5.8063	-176.4844	27.9300 
481.544	0.0586	0.1108	1.0449	-0.4285	5.8228	-176.4954	27.9300 
481.563	0.0303	0.1006	1.0415	-0.2692	5.8337	-176.4789	27.9300 
481.584	0.0088	0.1426	1.0679	-0.1044	5.8832	-176.3855	27.9200 
481.603	-0.0063	0.1436	1.0732	0.0549	6.0095	-176.1987	27.9200 
481.669	0.0337	0.1021	1.0718	0.1428	6.1633	-176.0614	27.9200 
481.675	0.1143	0.0400	1.0464	0.1703	6.3171	-176.1877	27.9100 
481.675	0.0996	0.0513	1.0601	0.1868	6.4545	-176.5009	27.9100 
481.683	-0.0303	0.1606	1.1860	0.1593	6.5808	-176.6821	27.9100 
481.703	-0.1489	0.1162	1.3145	0.1428	6.7291	-176.5887	27.9100 
481.724	-0.1792	0.0776	1.2524	0.4999	6.9324	-176.1877	27.9000 
481.743	-0.1406	-0.0566	1.1074	0.8899	7.1796	-175.7758	27.9000 
481.763	-0.1392	-0.1118	0.9282	0.6757	7.4268	-175.4846	27.8900 
481.782	-0.1860	-0.1909	0.8931	-0.1263	7.6465	-175.3198	27.9000 
481.803	-0.2358	-0.1851	1.0581	-1.0876	7.6904	-175.0452	27.9000 
481.824	-0.2324	-0.1318	1.2417	-1.9006	7.6685	-174.6497	27.8800 
481.842	-0.1113	-0.1304	1.2881	-2.0929	7.6135	-174.2926	27.8900 
481.862	-0.0698	-0.0840	1.2036	-2.0764	7.5092	-174.0344	27.8800 
481.920	-0.0820	-0.0249	1.0840	-2.1259	7.3444	-173.8367	27.8800 
481.922	-0.1060	-0.0317	1.0000	-2.3016	7.1521	-173.5840	27.8700 
481.922	-0.1177	-0.0273	0.9302	-2.3676	7.0148	-173.2764	27.8700 
481.942	-0.0938	-0.0356	0.8501	-2.2467	6.9159	-173.0402	27.8800 
481.962	-0.0903	-0.0225	0.8315	-2.0270	6.8390	-172.8973	27.8700 
481.982	-0.0938	-0.0347	0.8340	-1.9336	6.7181	-172.7435	27.8600 
482.002	-0.1201	0.0142	0.8369	-1.6205	6.5973	-172.6666	27.8700 
482.024	-0.1636	-0.0571	0.8252	-1.6315	6.5479	-172.5128	27.8500 
482.058	-0.1279	-0.0098	0.8687	-1.7249	6.5424	-172.3315	27.8500 
482.062	-0.1006	0.0518	0.9233	-1.6315	6.5259	-172.2382	27.8500 
482.084	-0.0903	0.0371	0.9380	-1.4392	6.4929	-172.1393	27.8400 
482.102	-0.0869	0.0928	0.9448	-1.1810	6.4160	-172.1228	27.8400 
482.121	-0.1055	0.0874	0.9473	-0.7910	6.3501	-172.0953	27.8300 
482.141	-0.1055	0.0889	0.9858	-0.5273	6.2897	-172.0679	27.8300 
482.161	-0.1006	0.1255	1.0166	-0.3131	6.2018	-172.1063	27.8200 
482.181	-0.0874	0.1455	1.0728	-0.1648	6.0645	-172.1558	27.8400 
482.201	-0.1045	0.1401	1.0796	0.0659	5.9052	-172.1832	27.8200 
482.220	-0.1313	0.1265	1.0645	0.2637	5.7568	-172.1228	27.8200 
482.240	-0.1235	0.1606	1.0596	0.4175	5.6250	-172.0184	27.8300 
482.260	-0.0786	0.2168	1.0737	0.5988	5.4822	-171.9305	27.8200 
482.298	-0.0166	0.1802	1.0981	0.8405	5.2679	-172.0129	27.8200 
482.300	0.0347	0.1123	1.2417	1.0822	4.9438	-172.3480	27.8200 
482.321	-0.0132	0.1582	1.2256	1.4777	4.6198	-172.7216	27.8400 
482.340	-0.0986	-0.0347	1.1250	1.8457	4.4110	-172.9797	27.8200 
482.360	-0.0190	-0.0840	1.0830	1.8018	4.2792	-173.2544	27.8300 
482.380	0.1113	-0.1621	1.0913	1.3348	4.2188	-173.7268	27.8400 
482.400	0.1255	-0.1646	1.0796	0.7306	4.1913	-174.2267	27.8400 
482.420	0.0352	-0.1841	1.1401	0.1978	4.2188	-174.6497	27.8400 
482.439	-0.0757	-0.1250	1.2031	-0.2087	4.3231	-174.9408	27.8400 
482.488	-0.1191	0.0020	1.1812	-0.4999	4.5703	-175.1550	27.8200 
482.490	-0.1035	0.0400	1.0815	-0.7910	4.8724	-175.3198	27.8400 
482.500	-0.0537	0.0029	0.8618	-1.0217	5.1910	-175.3967	27.8200 
482.519	-0.0112	-0.0122	0.7637	-1.2085	5.4437	-175.4297	27.8300 
482.539	0.0205	-0.0391	0.7632	-1.4447	5.6195	-175.4901	27.8400 
482.559	0.0347	-0.0708	0.8184	-1.6864	5.7568	-175.5615	27.8400 
482.579	0.0200	-0.0088	0.9053	-1.9830	5.9271	-175.6659	27.8300 
482.600	0.0186	-0.0283	0.9360	-2.2412	6.0864	-175.7208	27.8300 
482.619	0.0308	-0.0269	0.9805	-2.4664	6.2018	-175.7043	27.8300 
482.642	0.0303	-0.0361	0.9956	-2.6422	6.2787	-175.6494	27.8300 
482.678	0.0288	0.0186	1.0083	-2.7850	6.3226	-175.6055	27.8300 
482.683	0.0249	0.0503	1.0210	-2.7905	6.3556	-175.5890	27.8300 
482.699	0.0195	0.0845	1.0264	-2.6147	6.3831	-175.6274	27.8200 
482.718	0.0059	0.0913	1.0386	-2.3621	6.4160	-175.6494	27.8300 
482.738	-0.0327	0.0894	1.0327	-2.0709	6.4380	-175.5725	27.8200 
482.757	-0.0562	0.0903	1.0303	-1.8182	6.4929	-175.3857	27.8300 
482.777	-0.0181	0.0820	1.0654	-1.6095	6.5588	-175.1495	27.8300 
482.798	0.0405	0.0864	1.0664	-1.3184	6.5973	-175.0507	27.8200 
482.818	0.1045	0.0557	1.0376	-1.0712	6.6083	-175.2429	27.8000 
482.840	0.0811	0.1030	1.0542	-0.9503	6.5973	-175.5890	27.8300 
482.858	-0.0386	0.1436	1.1196	-0.7306	6.5973	-175.8582	27.8200 
482.877	-0.1318	0.0850	1.2236	-0.4230	6.6687	-175.8911	27.8200 
482.916	-0.1299	0.0630	1.1919	-0.0714	6.7786	-175.6989	27.8300 
482.918	-0.1377	-0.0259	1.0991	0.2307	6.9104	-175.4736	27.8100 
482.937	-0.2129	-0.1045	0.9634	0.1813	7.0422	-175.2045	27.8300 
482.957	-0.2651	-0.1821	0.9404	-0.2362	7.1906	-174.8749	27.8200 
482.977	-0.2393	-0.1719	1.0659	-0.8185	7.2894	-174.5123	27.8000 
482.997	-0.1880	-0.1450	1.2188	-1.2799	7.3553	-174.1772	27.8100 
483.017	-0.0898	-0.1172	1.2773	-1.4612	7.3279	-173.9191	27.8000 
483.037	-0.0615	-0.0806	1.2256	-1.5436	7.2290	-173.7103	27.8000 
483.057	-0.0518	0.0371	1.0947	-1.6150	7.0477	-173.5455	27.8100 
483.111	-0.0518	0.0161	1.0024	-1.7523	6.8390	-173.3752	27.8000 
483.113	-0.0508	-0.0015	0.9048	-1.7413	6.6522	-173.1995	27.8100 
483.116	-0.0742	0.0244	0.8540	-1.6699	6.4929	-173.0127	27.8300 
483.136	-0.1001	0.0347	0.8140	-1.4832	6.3501	-172.8040	27.7900 
483.156	-0.1177	0.0259	0.7983	-1.3019	6.2183	-172.5787	27.7900 
483.175	-0.1279	0.0366	0.8242	-1.2030	6.1139	-172.3700	27.7900 
483.196	-0.0791	0.0073	0.8711	-1.2030	6.0150	-172.1777	27.8000 
483.216	-0.0420	0.0552	0.9248	-1.3239	5.8942	-172.1887	27.8200 
483.236	-0.0625	0.0913	0.9312	-1.2909	5.7678	-172.1997	27.8000 
483.256	-0.0811	0.1055	0.9063	-1.0712	5.6580	-172.1338	27.8000 
483.298	-0.0996	0.0771	0.9019	-0.7306	5.5865	-172.0184	27.7800 
483.300	-0.1074	0.0684	0.9414	-0.5438	5.5426	-171.8811	27.7800 
483.315	-0.1196	0.0825	1.0156	-0.5109	5.5042	-171.7767	27.8000 
483.335	-0.0962	0.0913	1.0610	-0.5054	5.4327	-171.6888	27.7900 
483.355	-0.0542	0.0903	1.1084	-0.4449	5.2789	-171.6614	27.7800 
483.375	-0.0825	0.0991	1.1187	-0.2087	5.0977	-171.6394	27.7900 
483.395	-0.1470	0.1079	1.1104	0.0000	4.9603	-171.4691	27.7800 
483.415	-0.1372	0.1431	1.1060	0.1483	4.9054	-171.2549	27.7600 
483.435	-0.1143	0.1074	1.1826	0.3516	4.8779	-171.0791	27.7800 
483.458	-0.0532	0.1060	1.2891	0.6152	4.8175	-171.0626	27.7600 
483.475	-0.0195	0.1099	1.2236	1.0767	4.7131	-171.1395	27.7900 
483.495	-0.0298	-0.0381	1.1807	1.4996	4.6033	-171.1945	27.7900 
483.541	0.0308	-0.0425	1.0752	1.6315	4.5319	-171.3373	27.7800 
483.543	0.0757	-0.0693	0.9663	1.5656	4.5044	-171.6284	27.7700 
483.554	0.1323	-0.1870	0.9297	1.2030	4.5264	-172.0459	27.7800 
483.574	0.1250	-0.1904	1.0107	0.8295	4.5319	-172.4634	27.7800 
483.594	-0.0010	-0.0923	1.1753	0.4889	4.5978	-172.9083	27.7900 
483.614	-0.0659	-0.0415	1.1963	0.2692	4.7351	-173.2654	27.8000 
483.634	-0.0415	-0.0117	1.1240	0.1318	4.9109	-173.4686	27.7800 
483.656	-0.0083	-0.0059	1.0273	-0.1483	5.0977	-173.6884	27.8000 
483.674	0.0308	-0.0239	0.9150	-0.4120	5.2844	-173.9410	27.8000 
483.694	0.0542	-0.0483	0.8594	-0.5988	5.4382	-174.2377	27.7900 
483.738	0.0454	-0.0308	0.8389	-0.6317	5.5811	-174.5343	27.8000 
483.740	0.0361	0.0073	0.8657	-0.6207	5.7129	-174.8199	27.7900 
483.753	0.0405	0.0044	0.9019	-0.6976	5.8063	-175.0891	27.7700 
483.773	0.0327	-0.0122	0.9165	-1.0547	5.8667	-175.3253	27.7700 
483.793	0.0293	0.0000	0.9482	-1.4777	5.9052	-175.4901	27.7800 
483.813	0.0220	0.0254	0.9707	-1.6370	5.9326	-175.6000	27.7700 
483.836	0.0249	0.0557	0.9795	-1.6425	5.9491	-175.7043	27.7800 
483.854	0.0190	0.0566	0.9761	-1.5710	5.9656	-175.8142	27.7700 
483.873	0.0068	0.0513	0.9932	-1.4612	5.9821	-175.8966	27.7900 
483.934	0.0059	0.0967	1.0288	-1.4063	6.0260	-175.9570	27.7600 
483.937	0.0010	0.1040	1.0542	-1.4172	6.1029	-176.0175	27.7800 
483.937	0.0083	0.0962	1.0562	-1.4172	6.1908	-176.0229	27.7700 
483.953	0.0479	0.0708	1.0366	-1.2964	6.2512	-176.0614	27.7800 
483.972	0.0801	0.0586	1.0186	-1.1316	6.2787	-176.2097	27.7800 
483.992	0.0747	0.0796	1.0049	-0.9723	6.2732	-176.4624	27.7800 
484.013	0.0273	0.1406	1.0396	-0.7745	6.2567	-176.6382	27.7700 
484.032	-0.1060	0.0640	1.2021	-0.5109	6.2512	-176.5393	27.7800 
484.055	-0.1572	0.0835	1.2568	-0.2747	6.2787	-176.1603	27.7900 
484.072	-0.1621	-0.0415	1.1279	-0.1373	6.3831	-175.6824	27.7800 
484.127	-0.1421	-0.0908	1.0537	-0.2087	6.5149	-175.3033	27.7700 
484.129	-0.2017	-0.1758	0.9580	-0.5878	6.6962	-175.0232	27.7500 
484.132	-0.1743	-0.1714	1.0166	-1.2415	6.8280	-174.8254	27.7600 
484.152	-0.1431	-0.1426	1.2505	-1.6919	6.8555	-174.5728	27.7600 
484.171	-0.1113	-0.1006	1.3032	-1.9171	6.8115	-174.2432	27.7600 
484.191	-0.0796	-0.0171	1.2324	-1.9446	6.6962	-173.9246	27.7700 
484.211	-0.0767	-0.0249	1.1196	-1.9116	6.5259	-173.6005	27.7700 
484.231	-0.1143	-0.0439	0.9658	-1.9885	6.3501	-173.2434	27.7500 
484.251	-0.1396	-0.0640	0.8945	-2.1259	6.2567	-172.8918	27.7600 
484.271	-0.1230	-0.0161	0.8564	-2.2632	6.2457	-172.6062	27.7600 
484.314	-0.1270	-0.0103	0.8491	-2.2083	6.2347	-172.3041	27.7700 
484.316	-0.1372	-0.0562	0.8599	-2.2192	6.2183	-171.9415	27.7500 
484.331	-0.1392	-0.0093	0.8911	-2.3181	6.1908	-171.5570	27.7600 
484.351	-0.1260	-0.0283	0.8872	-2.3016	6.1633	-171.1670	27.7500 
484.371	-0.1069	-0.0239	0.9072	-2.3511	6.1359	-170.7330	27.7400 
484.390	-0.1343	0.0195	0.9014	-2.5873	6.1029	-170.2386	27.7400 
484.411	-0.1426	0.0156	0.9438	-2.4829	6.0809	-169.6619	27.7600 
484.430	-0.1323	0.0049	0.9438	-2.3181	6.0260	-169.0356	27.7300 
484.450	-0.1323	0.0752	0.9731	-2.1313	5.9656	-168.4204	27.7300 
484.501	-0.1333	0.0659	0.9736	-1.8182	5.8997	-167.7777	27.7500 
484.503	-0.1128	0.0620	0.9761	-1.6150	5.7953	-167.1240	27.7400 
484.510	-0.1191	0.0498	1.0000	-1.4612	5.6635	-166.4319	27.7300 
484.530	-0.1621	0.0796	1.0361	-1.3239	5.5316	-165.6409	27.7400 
484.550	-0.1724	0.0796	1.0483	-1.2195	5.4218	-164.7400	27.7500 
484.570	-0.1611	0.0869	1.0601	-1.1261	5.3119	-163.7842	27.7400 
484.590	-0.1484	0.0903	1.0513	-1.0272	5.1581	-162.7789	27.7400 
484.609	-0.0967	0.1064	1.0801	-0.9064	4.9219	-161.7682	27.7400 
484.630	-0.0640	0.1309	1.1289	-0.6592	4.6143	-160.7465	27.7600 
484.649	-0.0205	0.0342	1.2241	-0.3076	4.2023	-159.8621	27.7600 
484.671	-0.0459	0.0215	1.2886	0.2142	3.7848	-159.0161	27.7600 
484.689	-0.0811	-0.0811	1.1992	0.8350	3.4442	-158.0273	27.7600 
484.743	-0.0933	-0.1216	1.1064	1.1755	3.2245	-156.8353	27.7600 
484.745	-0.0630	-0.1787	1.0283	0.8185	3.1311	-155.4401	27.7500 
484.749	-0.0620	-0.2231	1.0679	0.0220	3.0817	-153.9075	27.7600 
484.769	-0.0591	-0.1255	1.1812	-0.5988	3.1421	-152.3199	27.7700 
484.789	-0.0459	-0.1133	1.1641	-0.6372	3.3069	-150.7104	27.7600 
484.809	-0.0264	-0.0366	1.0605	-0.5273	3.4497	-149.0076	27.7500 
484.829	-0.0571	-0.0005	0.9688	-0.4449	3.5870	-147.1179	27.7600 
484.849	-0.0967	-0.0776	0.9092	-0.4175	3.6914	-144.9646	27.7600 
484.868	-0.0913	-0.0947	0.9312	-0.4010	3.7573	-142.6685	27.7600 
484.888	-0.0864	-0.0679	0.9668	-0.3351	3.8013	-140.2515	27.7600 
484.932	-0.0703	-0.0850	0.9653	-0.2307	3.8123	-137.7081	27.7500 
484.935	-0.0889	-0.1162	0.9556	-0.0934	3.7573	-135.0055	27.7600 
484.947	-0.1201	-0.1123	0.9805	0.0330	3.6914	-132.1600	27.7600 
484.968	-0.0806	-0.0913	1.0703	0.0275	3.5870	-129.1333	27.7600 
484.988	-0.0249	-0.1006	1.0957	-0.0494	3.4387	-126.0461	27.7600 
485.008	0.0244	-0.0645	1.0796	-0.0769	3.2574	-122.9425	27.7600 
485.028	0.0176	-0.0762	1.0464	-0.0604	3.0487	-119.8279	27.7400 
485.047	0.0415	-0.0737	1.0493	-0.0989	2.8345	-116.7517	27.7500 
485.067	0.0645	-0.0547	1.0601	-0.1373	2.6532	-113.7689	27.7500 
485.121	0.1450	-0.0537	1.0361	-0.1483	2.4939	-110.9784	27.7700 
485.123	0.1704	-0.0630	0.9780	-0.0714	2.3401	-108.4845	27.7600 
485.127	0.1748	-0.0518	0.9287	0.0879	2.2083	-106.2543	27.7600 
485.147	0.1538	-0.0254	0.9487	0.2747	2.1478	-104.1998	27.7600 
485.167	0.1191	0.0269	0.9126	0.3296	2.1753	-102.3322	27.7700 
485.187	0.1016	-0.0127	0.8433	0.3735	2.2742	-100.7281	27.7600 
485.207	0.0493	0.0049	0.7939	0.4340	2.4390	-99.3384	27.7500 
485.227	0.0444	-0.0244	0.8379	0.3955	2.6532	-98.0365	27.7600 
485.247	0.0151	-0.1606	1.1060	0.1208	2.8949	-96.8665	27.7600 
485.267	-0.0239	-0.1616	1.3330	-0.3241	3.1805	-95.7404	27.7600 
485.311	-0.0630	0.0093	1.3442	-0.5823	3.4552	-94.5813	27.7700 
485.314	-0.0601	0.0024	1.1255	-0.5933	3.7134	-93.5706	27.7800 
485.326	-0.0630	-0.0454	0.8574	-0.8679	3.9606	-92.8345	27.7500 
485.346	-0.0313	-0.0654	0.9404	-1.0986	4.1473	-92.1808	27.7700 
485.366	-0.0713	-0.0366	1.1748	-1.1041	4.1583	-91.3843	27.7600 
485.386	-0.1328	0.0181	1.1714	-0.9448	4.1254	-90.4999	27.7600 
485.406	-0.1548	0.0435	1.0869	-0.7581	4.1638	-89.6924	27.7600 
485.426	-0.1294	0.0161	1.0459	-0.6097	4.2792	-88.9948	27.7700 
485.446	-0.0815	0.0015	1.0034	-0.4999	4.4000	-88.3850	27.7800 
485.466	-0.0854	-0.0088	0.9741	-0.3900	4.5099	-87.7588	27.7600 
485.486	-0.0776	0.0205	0.9238	-0.2856	4.6198	-87.0776	27.7600 
485.505	-0.0864	0.0278	0.9160	-0.2197	4.7461	-86.3745	27.7800 
485.562	-0.0894	0.0308	0.9575	-0.2032	4.9493	-85.7153	27.7600 
485.564	-0.1060	0.0195	0.9717	-0.2911	5.1636	-85.1001	27.7700 
485.566	-0.1167	-0.0044	0.9839	-0.4834	5.3339	-84.5837	27.7600 
485.585	-0.0986	0.0200	0.9956	-0.6537	5.4877	-84.1003	27.7600 
485.605	-0.0850	0.0347	1.0161	-0.5878	5.6250	-83.6169	27.7600 
485.625	-0.0957	0.0391	1.0127	-0.4944	5.7349	-83.1610	27.7700 
485.644	-0.1118	0.0415	1.0093	-0.4449	5.8337	-82.7435	27.7600 
485.664	-0.1172	0.0640	1.0107	-0.3790	5.9381	-82.3645	27.7900 
485.686	-0.1128	0.0654	1.0078	-0.2032	6.0590	-82.0074	27.7800 
485.704	-0.1216	0.0781	1.0278	-0.1044	6.1578	-81.7218	27.7600 
485.748	-0.1201	0.0752	1.0410	-0.0549	6.2292	-81.5021	27.7700 
485.750	-0.1143	0.1167	1.0547	0.0934	6.2787	-81.3208	27.7700 
485.764	-0.1245	0.0991	1.0425	0.3571	6.3336	-81.1725	27.7800 
485.785	-0.1353	0.0952	1.0508	0.6042	6.3940	-81.0791	27.7700 
485.804	-0.1362	0.1196	1.0493	0.8569	6.4435	-80.9967	27.7400 
485.824	-0.1313	0.1162	1.0566	1.2085	6.4709	-80.8759	27.7600 
485.844	-0.1060	0.0996	1.1094	1.5491	6.4545	-80.7385	27.7600 
485.864	-0.0430	0.0908	1.2153	1.8347	6.3721	-80.6561	27.7600 
485.883	-0.0410	0.1025	1.2021	2.1368	6.2567	-80.5737	27.7700 
485.933	-0.0723	-0.0156	1.1528	2.3730	6.1523	-80.5847	27.7800 
485.935	-0.0498	-0.0488	1.1206	2.4994	6.0809	-80.5957	27.7600 
485.943	0.0142	-0.1104	0.9878	2.4609	6.0699	-80.7001	27.7800 
485.963	0.0610	-0.1870	0.9390	2.2357	6.1249	-80.9747	27.7700 
485.983	0.1206	-0.2041	1.0181	1.8182	6.1853	-81.4636	27.7700 
486.006	0.0981	-0.2100	1.1216	1.4063	6.2018	-82.0349	27.7800 
486.023	0.0190	-0.1196	1.2261	1.2689	6.1743	-82.4304	27.7700 
486.043	-0.0347	-0.0801	1.2100	1.1646	6.1578	-82.6501	27.7700 
486.063	-0.0742	-0.0557	1.0718	0.9338	6.2292	-82.7106	27.7800 
486.083	-0.0483	-0.0591	0.9751	0.6592	6.3940	-82.7820	27.7900 
486.122	0.0132	-0.0659	0.8789	0.3461	6.5863	-82.8699	27.7800 
486.126	0.0498	-0.0679	0.8633	0.1483	6.7236	-82.9523	27.7800 
486.142	0.0698	-0.0620	0.8618	0.1758	6.7676	-83.0292	27.7900 
486.162	0.0522	-0.0488	0.8760	0.1648	6.7676	-83.0951	27.7700 
486.182	0.0273	-0.0386	0.9380	0.1593	6.7401	-83.1555	27.7900 
486.202	0.0239	-0.0547	0.9570	0.0989	6.6907	-83.1775	27.7800 
486.222	0.0332	-0.0146	0.9985	-0.0385	6.6248	-83.0896	27.7600 
486.242	0.0430	0.0137	0.9868	-0.0385	6.5479	-82.9358	27.7800 
486.262	0.0596	-0.0059	0.9849	-0.0220	6.4545	-82.7490	27.7700 
486.282	0.0454	0.0391	1.0039	0.0220	6.3776	-82.6007	27.7800 
486.302	0.0000	0.0527	0.9932	0.0494	6.3391	-82.4524	27.7700 
486.321	-0.0127	0.0376	0.9819	0.1099	6.3446	-82.2327	27.7600 
486.360	0.0015	0.0381	1.0049	0.1538	6.4105	-81.9580	27.7600 
486.362	0.0396	0.0210	1.0229	0.1758	6.5369	-81.6724	27.7800 
486.381	0.0752	0.0244	1.0273	0.2362	6.6852	-81.4471	27.7500 
486.401	0.0605	0.0303	1.0244	0.3021	6.8555	-81.2659	27.7600 
486.421	0.0098	0.1045	1.0601	0.4669	7.0367	-81.0352	27.7700 
486.442	-0.0713	0.0977	1.1377	0.7855	7.2400	-80.7275	27.7800 
486.461	-0.1606	0.0684	1.2559	1.1646	7.5037	-80.3430	27.7600 
486.481	-0.1187	0.0234	1.2266	1.5656	7.8113	-79.8706	27.7600 
486.503	-0.0537	-0.1069	1.1064	1.7853	8.1079	-79.5300	27.7600 
486.549	-0.0903	-0.1128	0.9531	1.6864	8.3771	-79.3378	27.7500 
486.551	-0.1465	-0.1592	0.8872	1.1041	8.5968	-79.2773	27.7500 
486.561	-0.1855	-0.1626	1.0610	0.4285	8.6737	-79.1455	27.7600 
486.580	-0.1831	-0.1250	1.3276	0.2527	8.6133	-78.7665	27.7500 
486.600	-0.1128	-0.1069	1.2983	0.3241	8.4924	-78.3710	27.7500 
486.620	-0.0278	-0.0288	1.1440	0.4449	8.3276	-78.0029	27.7700 
486.640	-0.0396	-0.0259	1.0366	0.5383	8.0750	-77.6678	27.7600 
486.660	-0.0693	-0.0483	0.9248	0.5823	7.7783	-77.3877	27.7400 
486.680	-0.0718	-0.0029	0.9004	0.5823	7.4982	-77.1240	27.7400 
486.700	-0.0903	-0.0205	0.8438	0.9338	7.2565	-76.9043	27.7400 
486.743	-0.0879	-0.0283	0.8384	1.2964	7.0477	-76.7450	27.7500 
486.750	-0.1021	0.0034	0.8325	1.2854	6.8719	-76.6022	27.7500 
486.760	-0.1094	0.0088	0.8608	1.2469	6.7676	-76.4594	27.7500 
486.779	-0.0918	-0.0146	0.9429	1.4557	6.7072	-76.3660	27.7500 
486.799	-0.0850	-0.0156	0.9580	1.1920	6.6522	-76.3165	27.7400 
486.819	-0.0864	0.0581	0.9834	0.9668	6.6083	-76.2671	27.7300 
486.839	-0.0859	0.0654	0.9658	1.2195	6.5918	-76.2067	27.7300 
486.859	-0.0840	0.0493	0.9619	1.5820	6.6028	-76.1462	27.7500 
486.879	-0.0757	0.1060	0.9995	1.8951	6.6248	-76.0364	27.7600 
486.900	-0.0684	0.1226	1.0283	2.1094	6.6083	-75.8990	27.7300 
486.919	-0.0688	0.1182	1.0679	2.2742	6.5149	-75.7617	27.7400 
486.939	-0.0835	0.1201	1.0825	2.4939	6.3885	-75.6573	27.7500 
486.989	-0.1104	0.0967	1.0571	2.6752	6.2952	-75.6244	27.7500 
486.991	-0.1050	0.0908	1.0435	2.6917	6.2292	-75.6079	27.7400 
486.998	-0.1074	0.1450	1.0469	2.7026	6.1853	-75.5420	27.7200 
487.018	-0.1128	0.1655	1.0708	2.7576	6.1414	-75.4321	27.7200 
487.038	-0.0415	0.1152	1.1587	2.8510	6.0315	-75.3333	27.7200 
487.058	0.0020	0.1216	1.1777	2.9718	5.8392	-75.2673	27.7400 
487.078	-0.0459	0.0376	1.1543	3.0817	5.6360	-75.2673	27.7300 
487.105	-0.0356	-0.0181	1.1274	3.0377	5.4712	-75.3003	27.7400 
487.117	0.0610	-0.0801	1.0508	2.8784	5.3778	-75.4541	27.7400 
487.139	0.0957	-0.1411	0.9834	2.6312	5.3778	-75.7892	27.7300 
487.174	0.1475	-0.1841	1.0405	2.2522	5.4108	-76.2726	27.7300 
487.177	0.1021	-0.1450	1.1587	1.8292	5.4492	-76.7450	27.7300 
487.197	-0.0215	-0.0430	1.2207	1.4667	5.5481	-77.1021	27.7500 
487.218	-0.0547	-0.0083	1.1836	1.2140	5.7019	-77.3822	27.7400 
487.238	-0.0371	0.0112	1.0156	1.0657	5.9106	-77.5470	27.7300 
487.257	-0.0269	-0.0073	0.8901	0.8899	6.1304	-77.6898	27.7400 
487.277	-0.0137	-0.0483	0.8140	0.6262	6.3226	-77.8491	27.7400 
487.297	0.0078	-0.0200	0.8291	0.4834	6.5039	-77.9755	27.7400 
487.318	0.0161	-0.0347	0.8721	0.4614	6.6193	-78.0414	27.7200 
487.373	0.0117	0.0029	0.9146	0.4065	6.7291	-78.0469	27.7300 
487.375	0.0122	-0.0337	0.9268	0.3406	6.8115	-78.0029	27.7100 
487.377	0.0234	-0.0073	0.9707	0.2032	6.8719	-77.9150	27.7100 
487.397	0.0332	-0.0054	1.0078	0.0989	6.8939	-77.7777	27.7200 
487.417	0.0386	0.0264	1.0376	0.0934	6.8939	-77.6074	27.7200 
487.437	0.0317	0.0693	1.0396	0.2582	6.8665	-77.4097	27.7300 
487.457	0.0298	0.0469	1.0059	0.4724	6.8225	-77.2559	27.7200 
487.476	-0.0068	0.0645	1.0220	0.5988	6.7950	-77.0966	27.7100 
487.496	-0.0420	0.0889	1.0522	0.6921	6.8225	-76.8384	27.7100 
487.517	-0.0688	0.1016	1.0742	0.8020	6.8939	-76.4648	27.7200 
487.559	-0.0303	0.0991	1.0640	0.8844	6.9928	-76.0474	27.7000 
487.562	0.0503	0.0674	1.0259	1.0107	7.0972	-75.6573	27.7000 
487.576	0.0767	0.0659	1.0308	1.1646	7.1796	-75.3333	27.6900 
487.596	0.0449	0.0488	1.1636	1.3568	7.2180	-75.0696	27.7000 
487.616	-0.0190	0.0552	1.2871	1.6260	7.2235	-74.8663	27.7000 
487.635	-0.1172	-0.0034	1.2441	1.9830	7.2125	-74.6796	27.7000 
487.656	-0.1714	-0.0386	1.1372	2.2687	7.2180	-74.5587	27.6900 
487.676	-0.1836	-0.0571	0.9434	2.1204	7.2839	-74.5038	27.6800 
487.695	-0.1812	-0.1631	0.8770	1.6260	7.3938	-74.6027	27.6800 
487.751	-0.2134	-0.1382	1.0771	1.1481	7.4542	-74.6356	27.6900 
487.757	-0.1782	-0.0591	1.2202	0.8130	7.4158	-74.4269	27.6900 
487.761	-0.0552	-0.0308	1.1973	0.7196	7.2949	-74.1248	27.7000 
487.775	-0.0449	-0.0205	1.1240	0.8130	7.1411	-73.8501	27.6800 
487.794	-0.0459	-0.0156	1.0024	0.6757	6.9598	-73.6523	27.6800 
487.814	-0.0586	-0.0166	0.9258	0.5164	6.7896	-73.4766	27.6800 
487.834	-0.0884	-0.0049	0.8496	0.4285	6.6577	-73.3118	27.6800 
487.854	-0.1138	0.0161	0.8447	0.4779	6.5479	-73.1580	27.6600 
487.874	-0.1250	0.0112	0.8477	0.5164	6.4490	-73.0481	27.6700 
487.894	-0.1084	0.0068	0.8506	0.4944	6.3666	-72.9382	27.6700 
487.917	-0.1162	0.0093	0.8843	0.5273	6.2952	-72.8613	27.6600 
487.934	-0.1079	-0.0068	0.9121	0.5823	6.2512	-72.8229	27.6500 
487.954	-0.1021	0.0239	0.9629	0.6317	6.2347	-72.7899	27.6700 
487.994	-0.1030	0.0635	0.9897	0.8130	6.2347	-72.7020	27.6600 
487.997	-0.0928	0.1099	1.0103	1.2195	6.2292	-72.5812	27.6600 
488.014	-0.0928	0.1079	0.9927	1.6205	6.2018	-72.4603	27.6700 
488.034	-0.0938	0.0933	0.9966	1.9336	6.1743	-72.3779	27.6700 
488.053	-0.0874	0.1040	1.0088	2.1643	6.1523	-72.3834	27.6600 
488.073	-0.0830	0.1357	1.0288	2.2632	6.1249	-72.4219	27.6700 
488.093	-0.1104	0.1455	1.0347	2.3676	6.1029	-72.4274	27.6700 
488.115	-0.1260	0.1367	1.0283	2.4884	6.0699	-72.4274	27.6500 
488.133	-0.1299	0.1572	1.0127	2.5818	6.0315	-72.3560	27.6600 
488.182	-0.1133	0.1763	1.0186	2.7081	5.9766	-72.2241	27.6700 
488.184	-0.0454	0.1191	1.1279	2.8400	5.8887	-72.1472	27.6800 
488.193	0.0059	0.1094	1.2373	3.0322	5.7404	-72.2076	27.6700 
488.213	0.0020	0.0571	1.2090	3.3014	5.5646	-72.3285	27.6700 
488.233	-0.0015	-0.0313	1.2036	3.4717	5.4053	-72.6526	27.6700 
488.253	0.0308	-0.0327	1.0923	3.3398	5.2954	-73.0481	27.6700 
488.272	0.0200	-0.1382	0.9790	2.8839	5.3284	-73.6029	27.6700 
488.292	0.0718	-0.1948	1.0151	2.1918	5.4437	-74.3665	27.6800 
488.313	0.0488	-0.1533	1.1763	1.4667	5.5591	-75.1245	27.6800 
488.373	-0.0596	-0.0234	1.2524	0.9668	5.6635	-75.7178	27.6800 
488.377	-0.0527	-0.0259	1.1953	0.7965	5.7623	-76.1407	27.6800 
488.377	-0.0557	-0.0303	1.0298	0.6976	5.8887	-76.4813	27.6700 
488.392	-0.0615	-0.0376	0.9272	0.4614	6.0480	-76.8054	27.6800 
488.412	0.0063	-0.0347	0.8604	0.0439	6.2018	-77.1240	27.6800 
488.432	0.0386	-0.0415	0.8560	-0.2252	6.3171	-77.4316	27.6800 
488.452	0.0127	-0.0615	0.8765	-0.3186	6.3995	-77.7338	27.6700 
488.473	0.0083	-0.0361	0.9033	-0.4999	6.4655	-77.9919	27.6900 
488.491	0.0059	-0.0625	0.9380	-0.6262	6.5204	-78.2446	27.6900 
488.511	0.0186	-0.0439	0.9629	-0.8185	6.5698	-78.4259	27.6900 
488.561	0.0420	0.0078	1.0044	-0.9833	6.5863	-78.5193	27.6800 
488.565	0.0513	0.0205	1.0034	-0.9613	6.5643	-78.5687	27.6900 
488.571	0.0244	0.0391	0.9883	-0.7965	6.5094	-78.5907	27.6800 
488.591	0.0044	0.0479	0.9727	-0.5658	6.4655	-78.6237	27.6900 
488.611	-0.0229	0.0908	0.9834	-0.3845	6.4545	-78.6072	27.6700 
488.631	-0.0317	0.0854	0.9775	-0.2307	6.4819	-78.5577	27.6600 
488.650	-0.0259	0.0791	0.9897	-0.1099	6.5424	-78.4808	27.6700 
488.671	-0.0049	0.0630	1.0229	0.0385	6.6138	-78.3875	27.6500 
488.691	0.0747	0.0483	1.0322	0.1923	6.6907	-78.3655	27.6800 
488.710	0.0928	0.0723	1.0244	0.4395	6.7566	-78.4149	27.6700 
488.731	0.0293	0.0923	1.0352	0.7086	6.8225	-78.5083	27.6600 
488.750	-0.0410	0.1387	1.1006	0.9833	6.9214	-78.5303	27.6700 
488.801	-0.1523	0.0986	1.2617	1.1426	7.0752	-78.5248	27.6700 
488.804	-0.1567	0.0991	1.2412	1.3458	7.2784	-78.4369	27.6500 
488.810	-0.1226	-0.0566	1.1064	1.4941	7.5037	-78.4204	27.6600 
488.830	-0.1416	-0.0996	1.0244	1.2085	7.7234	-78.5577	27.6600 
488.849	-0.1729	-0.1279	0.9673	0.5768	7.9321	-78.8269	27.6700 
488.870	-0.1768	-0.1191	1.0508	0.0714	8.0475	-79.0247	27.6600 
488.889	-0.1484	-0.1465	1.2065	-0.2087	8.0200	-79.0576	27.6500 
488.911	-0.0747	-0.1201	1.2241	-0.3900	7.8882	-79.0631	27.6600 
488.929	-0.0098	-0.0146	1.1885	-0.4889	7.6575	-79.1180	27.6600 
488.949	-0.0220	-0.0225	1.0894	-0.6647	7.3114	-79.2334	27.6600 
488.988	-0.0557	-0.0444	0.9468	-0.8569	6.9543	-79.3817	27.6600 
488.990	-0.0908	-0.0293	0.8882	-1.0052	6.7181	-79.5355	27.6500 
489.010	-0.1143	-0.0093	0.8594	-1.1041	6.5698	-79.6454	27.6400 
489.029	-0.1201	-0.0444	0.8701	-0.9668	6.4874	-79.8212	27.6500 
489.049	-0.1035	0.0161	0.8940	-0.7690	6.3995	-80.0574	27.6300 
489.069	-0.0859	0.0283	0.9102	-0.3516	6.2732	-80.2991	27.6400 
489.089	-0.0669	-0.0254	0.9263	-0.2747	6.1469	-80.5023	27.6500 
489.109	-0.0771	-0.0132	0.9541	-0.4065	6.0205	-80.6506	27.6200 
489.128	-0.0874	0.0342	1.0034	-0.4834	5.9326	-80.7275	27.6200 
489.186	-0.0996	0.0464	1.0083	-0.5273	5.9161	-80.7990	27.6100 
489.191	-0.0576	0.0581	0.9897	-0.4944	5.9052	-80.9253	27.6400 
489.191	-0.0581	0.0552	0.9932	-0.2197	5.8942	-81.0736	27.6200 
489.208	-0.0869	0.0581	0.9937	-0.1208	5.8502	-81.2329	27.6100 
489.228	-0.0977	0.0557	0.9912	-0.1099	5.8063	-81.3867	27.6000 
489.248	-0.0845	0.0840	0.9990	-0.1483	5.7404	-81.5350	27.6100 
489.268	-0.0903	0.0781	1.0059	-0.0714	5.6580	-81.6449	27.6200 
489.288	-0.1099	0.0659	1.0205	0.0330	5.5756	-81.7548	27.6200 
489.308	-0.1240	0.0791	1.0493	0.0385	5.5042	-81.8536	27.6100 
489.328	-0.1289	0.1011	1.0591	0.0220	5.4657	-81.9250	27.6100 
489.374	-0.1060	0.0996	1.0854	0.0275	5.4163	-81.9855	27.6000 
489.377	-0.0503	0.0527	1.1484	0.0000	5.3009	-82.1008	27.6200 
489.387	0.0215	0.0776	1.1924	0.0934	5.0867	-82.2876	27.6200 
489.407	-0.0186	-0.0029	1.1802	0.3021	4.8615	-82.5842	27.6100 
489.427	-0.0356	-0.0391	1.1479	0.3625	4.6417	-83.0127	27.6200 
489.447	-0.0098	-0.0645	1.1274	0.1428	4.4604	-83.5071	27.6300 
489.467	0.0728	-0.0308	0.9912	-0.1978	4.3066	-84.0289	27.6100 
489.487	0.1133	-0.1299	0.9170	-0.6207	4.1583	-84.6716	27.6200 
489.507	0.1255	-0.2280	1.0098	-1.0382	4.0045	-85.4517	27.6300 
489.526	0.0830	-0.1802	1.1362	-1.3458	3.9331	-86.2207	27.6300 
489.546	0.0010	-0.0801	1.1978	-1.4667	3.9661	-86.8854	27.6200 
489.567	-0.0278	-0.0659	1.1641	-1.5216	4.0375	-87.3688	27.6100 
489.616	-0.0229	-0.0537	1.0576	-1.5930	4.0979	-87.6984	27.6000 
489.618	0.0103	-0.0356	0.9795	-1.7578	4.1528	-87.9620	27.6100 
489.626	0.0381	-0.0527	0.8979	-1.8402	4.2023	-88.2367	27.6200 
489.646	0.0449	-0.0518	0.8730	-1.8512	4.2407	-88.4839	27.6200 
489.666	0.0762	-0.0679	0.8906	-1.8237	4.2352	-88.7091	27.6300 
489.686	0.0942	-0.0508	0.9321	-1.7633	4.2078	-88.9178	27.6200 
489.706	0.1001	-0.0493	0.9722	-1.7798	4.1364	-89.0936	27.6200 
489.726	0.0698	-0.0405	0.9941	-1.8018	4.0485	-89.2529	27.6400 
489.747	0.0596	-0.0308	1.0000	-1.8073	3.9331	-89.3573	27.6100 
489.766	0.0664	-0.0093	1.0156	-1.8457	3.8287	-89.4287	27.6100 
489.805	0.0581	0.0166	1.0259	-1.6644	3.7244	-89.4507	27.6200 
489.807	0.0508	0.0020	1.0103	-1.5326	3.6310	-89.4342	27.6200 
489.825	0.0342	0.0366	1.0449	-1.3568	3.5706	-89.3683	27.6300 
489.845	0.0063	0.0562	1.0313	-1.1755	3.5706	-89.2419	27.6100 
489.865	0.0098	0.0508	1.0151	-1.0492	3.6310	-89.0881	27.6100 
489.885	0.0464	0.0376	0.9966	-0.8350	3.6969	-88.9398	27.6300 
489.905	0.0732	0.0195	1.0039	-0.5768	3.7463	-88.8080	27.6200 
489.925	0.0947	0.0337	0.9971	-0.4889	3.7738	-88.6926	27.6100 
489.944	0.0835	0.0161	1.0044	-0.4999	3.8123	-88.6322	27.6200 
489.996	0.0552	0.0337	1.0171	-0.4889	3.8617	-88.5773	27.6100 
489.998	0.0195	0.0522	1.0210	-0.4230	3.9221	-88.4619	27.6200 
490.004	-0.0039	0.0576	1.0522	-0.3076	4.0155	-88.2916	27.6000 
490.024	-0.0005	0.0742	1.1475	-0.2087	4.1638	-88.0774	27.6100 
490.044	0.0439	0.0820	1.1953	-0.0714	4.2902	-87.7917	27.6300 
490.064	0.0493	0.0303	1.1724	0.2362	4.3451	-87.4896	27.6000 
490.085	0.0234	0.0137	1.1968	0.5988	4.3726	-87.2974	27.5900 
490.104	-0.0093	-0.0083	1.1621	0.7800	4.4385	-87.2040	27.6100 
490.124	-0.0156	-0.0029	1.1338	0.7745	4.5593	-87.2205	27.6100 
490.144	0.0156	0.0679	1.0439	0.5493	4.7021	-87.2699	27.6000 
490.163	0.0117	0.0366	0.9478	0.2142	4.8230	-87.3413	27.6100 
490.184	-0.0913	-0.0513	0.8218	0.0000	4.9164	-87.3688	27.6100 
490.234	-0.0913	-0.0630	0.8042	-0.0824	4.9878	-87.1985	27.6000 
490.236	-0.0996	-0.1206	0.8691	-0.2362	5.0592	-86.9238	27.6100 
490.243	-0.1377	-0.1436	0.9775	-0.5438	5.2075	-86.6931	27.5900 
490.263	-0.1714	-0.1074	1.1392	-0.9119	5.4547	-86.5558	27.6000 
490.283	-0.1846	-0.1118	1.1606	-1.2579	5.7404	-86.4899	27.6000 
490.303	-0.1284	-0.0786	1.1348	-1.5436	6.0590	-86.5613	27.6000 
490.323	-0.0269	-0.0127	1.1299	-1.6699	6.3007	-86.5887	27.6000 
490.343	-0.0112	-0.0225	1.0234	-1.5820	6.3501	-86.4899	27.6000 
490.363	-0.1040	0.0474	0.9473	-1.2030	6.3831	-86.2042	27.6100 
490.382	-0.1255	-0.0449	0.9224	-0.5878	6.4655	-85.8197	27.6100 
490.422	-0.1011	-0.0430	1.0142	-0.2802	6.6028	-85.6110	27.6200 
490.425	-0.0728	-0.0757	1.0127	-0.3296	6.7566	-85.6329	27.6000 
490.443	-0.1445	-0.0376	0.9917	-0.4065	6.9049	-85.7373	27.6000 
490.462	-0.1592	0.0186	1.0156	-0.4724	7.0422	-85.8307	27.6100 
490.482	-0.1323	-0.0283	1.0210	-0.4999	7.1301	-85.9296	27.6000 
490.502	-0.1162	-0.0601	1.0132	-0.5988	7.1796	-86.1438	27.6000 
490.523	-0.0986	-0.0469	0.9775	-0.7141	7.2070	-86.4459	27.6000 
490.542	-0.1299	-0.0439	0.9844	-0.8954	7.2400	-86.8304	27.5900 
490.564	-0.1235	0.0317	1.0410	-1.0437	7.2455	-87.1545	27.6100 
490.621	-0.1099	0.0000	1.0010	-1.0327	7.1851	-87.4237	27.5900 
490.623	-0.1250	-0.0781	1.0049	-1.0437	7.0972	-87.7643	27.5900 
490.623	-0.1118	-0.0234	1.1118	-1.0217	6.9873	-88.0884	27.6100 
490.642	-0.0518	0.0220	1.1348	-0.9393	6.8500	-88.3850	27.6000 
490.661	-0.0249	0.0264	1.1206	-0.7745	6.7072	-88.6377	27.6100 
490.681	0.0107	0.0215	1.0225	-0.5548	6.4490	-88.6652	27.5900 
490.701	-0.0640	-0.0410	0.9312	-0.6097	6.1908	-88.8135	27.6000 
490.721	-0.0806	0.0273	0.9248	-0.6702	6.0535	-88.9069	27.6000 
490.741	-0.0698	-0.0142	0.9419	-0.7251	5.9656	-89.0771	27.6000 
490.761	-0.0615	-0.0098	1.0073	-0.7800	5.9381	-89.2859	27.6000 
490.817	-0.0327	-0.0293	0.9976	-0.7800	5.8942	-89.5386	27.5900 
490.820	-0.0044	-0.0054	1.0425	-0.5823	5.7513	-89.7583	27.6000 
490.822	-0.0342	-0.0054	1.0566	-0.5548	5.6195	-89.8407	27.6000 
490.844	0.0171	0.1284	1.0283	-0.4065	5.5151	-89.7144	27.6000 
490.860	-0.0034	0.0063	0.9961	0.2032	5.3558	-89.6210	27.5900 
490.880	-0.0439	0.0327	1.0669	0.5988	5.2570	-89.5825	27.6000 
490.900	-0.0879	0.0537	1.1382	0.6702	5.2075	-89.4946	27.6100 
490.920	0.0166	0.0264	1.0044	0.8569	5.0867	-89.3628	27.6000 
490.940	-0.0005	-0.0127	1.0103	0.9338	4.9878	-89.3518	27.6100 
490.959	0.0034	0.0762	1.0117	0.8405	4.9384	-89.4177	27.6300 
491.002	-0.0063	0.0669	0.9648	0.8020	4.8999	-89.4727	27.6100 
491.015	-0.0518	0.1255	1.0273	0.9283	4.9219	-89.5056	27.6100 
491.020	-0.0571	0.0918	1.0464	1.1700	4.9219	-89.4452	27.6000 
491.040	-0.0542	0.0771	1.0908	1.3568	4.9219	-89.2914	27.6100 
491.060	-0.0249	0.0459	1.0610	1.5051	4.9438	-89.1431	27.6100 
491.079	-0.0034	0.0601	1.0259	1.5106	4.9548	-89.0387	27.6200 
491.099	-0.0122	0.0825	1.0532	1.4612	4.9548	-88.9014	27.6100 
491.119	0.0063	0.0376	1.0244	1.2964	4.9054	-88.8629	27.6100 
491.139	-0.0088	0.0537	1.0112	1.1316	4.8944	-88.9069	27.6200 
491.159	-0.0347	0.0879	1.0366	1.0052	4.8889	-88.8904	27.6100 
491.179	-0.0391	0.0576	1.0278	0.9393	4.8999	-88.8904	27.6200 
491.199	-0.0244	0.0659	1.0322	0.9503	4.8999	-88.8904	27.6200 
491.244	-0.0098	0.0630	1.0229	1.0107	4.8834	-88.8574	27.6200 
491.247	-0.0146	0.0913	1.0610	1.0382	4.8669	-88.8354	27.6300 
491.258	-0.0166	0.0801	1.0474	1.0657	4.8230	-88.7531	27.6400 
491.279	-0.0200	0.0527	1.0269	1.0437	4.7681	-88.6761	27.6200 
491.298	-0.0088	0.0571	1.0024	0.9888	4.7076	-88.6212	27.6200 
491.318	-0.0088	0.0874	1.0186	0.9833	4.6637	-88.5718	27.6300 
491.338	-0.0220	0.0562	1.0142	1.0437	4.6143	-88.5278	27.6400 
491.358	-0.0225	0.0742	1.0366	1.0547	4.5868	-88.5004	27.6200 
491.379	-0.0244	0.0684	1.0454	1.0382	4.5703	-88.4729	27.6300 
491.436	-0.0146	0.0791	1.0474	0.9833	4.5374	-88.4125	27.6300 
491.438	0.0039	0.0708	1.0225	0.9338	4.4769	-88.2916	27.6300 
491.438	0.0039	0.0771	1.0156	0.9558	4.3945	-88.1213	27.6400 
491.458	-0.0039	0.0366	1.0210	0.9998	4.3231	-87.9730	27.6300 
491.477	-0.0073	0.0454	1.0225	0.9833	4.2902	-87.9071	27.6200 
491.497	-0.0132	0.0645	1.0283	0.9064	4.2957	-87.9071	27.6300 
491.517	-0.0107	0.0933	1.0181	0.8514	4.2902	-87.8961	27.6400 
491.540	-0.0190	0.0825	1.0352	0.8350	4.2627	-87.8302	27.6400 
491.557	-0.0117	0.0620	1.0400	0.8624	4.2242	-87.7094	27.6100 
491.577	-0.0005	0.0327	1.0415	0.8240	4.1803	-87.5885	27.6400 
491.629	0.0142	0.0444	1.0107	0.7910	4.1418	-87.5006	27.6500 
491.632	0.0059	0.0308	1.0010	0.8020	4.1144	-87.4457	27.6400 
491.637	-0.0015	0.0532	1.0078	0.7635	4.1089	-87.4841	27.6500 
491.657	0.0029	0.0947	1.0371	0.7086	4.1254	-87.5061	27.6400 
491.677	-0.0112	0.0347	1.0342	0.6702	4.1144	-87.5061	27.6300 
491.696	-0.0107	0.0576	1.0386	0.6647	4.1034	-87.5171	27.6400 
491.717	-0.0127	0.0298	1.0269	0.6647	4.0979	-87.5446	27.6400 
491.737	-0.0137	0.0420	1.0308	0.6757	4.0924	-87.5775	27.6300 
491.756	0.0093	0.0674	1.0234	0.6921	4.0979	-87.5720	27.6300 
491.776	0.0059	0.0610	1.0259	0.7306	4.0814	-87.5665	27.6400 
491.824	0.0024	0.0537	1.0176	0.7635	4.0540	-87.5555	27.6400 
491.828	-0.0054	0.0586	1.0410	0.7855	4.0265	-87.5391	27.6400 
491.836	0.0049	0.0444	1.0269	0.7800	4.0155	-87.5555	27.6400 
491.856	-0.0073	0.0664	1.0293	0.7526	4.0155	-87.5830	27.6400 
491.875	-0.0098	0.0640	1.0371	0.7416	4.0155	-87.5995	27.6500 
491.895	-0.0156	0.0522	1.0317	0.7416	4.0100	-87.6160	27.6500 
491.915	-0.0063	0.0518	1.0283	0.7416	3.9990	-87.6215	27.6600 
491.935	0.0005	0.0503	1.0171	0.7526	3.9771	-87.6270	27.6600 
491.955	-0.0020	0.0518	1.0171	0.7745	3.9606	-87.6160	27.6400 
491.979	-0.0068	0.0586	1.0273	0.8020	3.9496	-87.5885	27.6500 
491.995	-0.0083	0.0552	1.0356	0.8185	3.9386	-87.5610	27.6400 
492.015	-0.0073	0.0630	1.0308	0.8130	3.9331	-87.5336	27.6400 
492.072	0.0044	0.0537	1.0239	0.7855	3.9276	-87.5281	27.6400 
492.074	-0.0020	0.0532	1.0225	0.7635	3.9111	-87.5281	27.6600 
492.077	-0.0059	0.0542	1.0239	0.7581	3.9001	-87.5226	27.6500 
492.094	-0.0059	0.0615	1.0254	0.7800	3.8947	-87.5061	27.6500 
492.114	-0.0044	0.0635	1.0313	0.8075	3.8837	-87.4786	27.6500 
492.136	-0.0039	0.0503	1.0308	0.8240	3.8727	-87.4567	27.6400 
492.154	-0.0073	0.0566	1.0322	0.8514	3.8617	-87.4347	27.6700 
492.174	-0.0059	0.0703	1.0347	0.8899	3.8452	-87.3853	27.6400 
492.194	-0.0039	0.0610	1.0278	0.9174	3.8342	-87.3523	27.6500 
492.214	-0.0010	0.0518	1.0215	0.9283	3.8342	-87.3413	27.6600 
492.259	0.0039	0.0664	1.0249	0.9283	3.8287	-87.3248	27.6500 
492.261	-0.0020	0.0405	1.0229	0.9119	3.8232	-87.3413	27.6600 
492.274	0.0010	0.0581	1.0278	0.9119	3.8123	-87.3468	27.6700 
492.294	-0.0029	0.0703	1.0366	0.9229	3.7903	-87.3248	27.6700 
492.314	-0.0059	0.0640	1.0352	0.9393	3.7683	-87.2974	27.6700 
492.334	-0.0010	0.0474	1.0205	0.9613	3.7463	-87.2699	27.6800 
492.354	-0.0010	0.0464	1.0156	0.9613	3.7244	-87.2479	27.6600 
492.373	-0.0029	0.0562	1.0234	0.9393	3.7079	-87.2260	27.6500 
492.394	-0.0078	0.0542	1.0264	0.9174	3.7024	-87.2095	27.6600 
492.456	-0.0005	0.0532	1.0269	0.9064	3.6914	-87.2040	27.6700 
492.459	0.0024	0.0508	1.0225	0.8954	3.6804	-87.2040	27.6500 
492.459	-0.0068	0.0576	1.0327	0.8899	3.6694	-87.2040	27.6600 
492.474	-0.0054	0.0625	1.0303	0.9174	3.6530	-87.1765	27.6600 
492.493	-0.0034	0.0532	1.0278	0.9723	3.6310	-87.1326	27.6700 
492.513	-0.0063	0.0596	1.0264	1.0327	3.6145	-87.0612	27.6500 
492.533	-0.0044	0.0610	1.0225	1.0657	3.6035	-87.0062	27.6700 
492.555	-0.0044	0.0679	1.0273	1.0602	3.6090	-86.9733	27.6600 
492.573	-0.0015	0.0552	1.0293	1.0327	3.6200	-86.9568	27.6700 
492.594	-0.0005	0.0518	1.0259	0.9998	3.6255	-86.9348	27.6700 
492.647	-0.0049	0.0547	1.0239	0.9833	3.6310	-86.9128	27.6700 
492.649	-0.0151	0.0562	1.0283	0.9668	3.6420	-86.8854	27.6700 
492.652	-0.0059	0.0488	1.0249	0.9448	3.6584	-86.8634	27.6600 
492.672	-0.0059	0.0527	1.0264	0.9283	3.6749	-86.8359	27.6600 
492.692	-0.0029	0.0537	1.0283	0.9338	3.6804	-86.7975	27.6500 
492.712	-0.0010	0.0591	1.0303	0.9283	3.6914	-86.7590	27.6800 
492.732	-0.0054	0.0518	1.0229	0.9009	3.7079	-86.7261	27.6700 
492.752	-0.0088	0.0439	1.0186	0.8734	3.7244	-86.7206	27.6700 
492.773	-0.0103	0.0552	1.0234	0.8459	3.7518	-86.7041	27.6800 
492.794	-0.0117	0.0371	1.0264	0.8295	3.7738	-86.7096	27.6800 
492.843	-0.0039	0.0557	1.0356	0.8240	3.7903	-86.7041	27.6600 
492.847	-0.0005	0.0576	1.0317	0.8295	3.7958	-86.6876	27.6600 
492.851	-0.0068	0.0591	1.0283	0.8459	3.7903	-86.6766	27.6800 
492.871	-0.0127	0.0566	1.0234	0.8624	3.7848	-86.6602	27.6700 
492.891	-0.0122	0.0474	1.0220	0.8679	3.7793	-86.6602	27.6800 
492.911	-0.0054	0.0537	1.0283	0.8459	3.7738	-86.6766	27.6700 
492.931	-0.0024	0.0586	1.0332	0.8295	3.7683	-86.6986	27.6700 
492.950	-0.0049	0.0532	1.0317	0.8185	3.7573	-86.7261	27.6700 
492.971	-0.0073	0.0522	1.0273	0.7965	3.7463	-86.7535	27.6700 
492.990	-0.0083	0.0518	1.0269	0.7635	3.7354	-86.7700	27.6800 
493.046	-0.0059	0.0547	1.0264	0.7526	3.7299	-86.7700	27.6800 
493.048	-0.0068	0.0464	1.0273	0.7471	3.7189	-86.7645	27.6800 
493.051	-0.0010	0.0576	1.0278	0.7581	3.7024	-86.7426	27.6900 
493.070	-0.0024	0.0542	1.0269	0.7581	3.6859	-86.7316	27.6700 
493.090	-0.0059	0.0576	1.0317	0.7416	3.6804	-86.7316	27.6700 
493.109	-0.0073	0.0542	1.0322	0.7251	3.6859	-86.7480	27.6800 
493.130	-0.0083	0.0542	1.0278	0.7196	3.6914	-86.7535	27.6800 
493.150	-0.0093	0.0444	1.0288	0.7086	3.6969	-86.7590	27.6700 
493.170	-0.0117	0.0498	1.0317	0.6921	3.7079	-86.7535	27.6900 
493.189	-0.0098	0.0444	1.0254	0.6702	3.7189	-86.7535	27.6900 
493.213	-0.0078	0.0425	1.0225	0.6592	3.7354	-86.7535	27.6900 
493.230	-0.0054	0.0444	1.0269	0.6592	3.7463	-86.7535	27.6900 
493.296	-0.0083	0.0459	1.0278	0.6537	3.7518	-86.7426	27.6900 
493.298	-0.0054	0.0557	1.0317	0.6372	3.7683	-86.7371	27.6900 
493.298	-0.0059	0.0420	1.0269	0.6097	3.7903	-86.7480	27.6800 
493.309	-0.0103	0.0527	1.0288	0.5988	3.8013	-86.7535	27.6900 
493.329	-0.0161	0.0488	1.0337	0.5768	3.8232	-86.7645	27.6800 
493.350	-0.0146	0.0229	1.0220	0.5713	3.8397	-86.7920	27.6800 
493.369	-0.0054	0.0503	1.0298	0.5768	3.8562	-86.7975	27.6800 
493.389	-0.0024	0.0483	1.0308	0.5878	3.8672	-86.7975	27.7000 
493.409	-0.0029	0.0469	1.0313	0.6042	3.8617	-86.7975	27.7000 
493.429	-0.0112	0.0415	1.0254	0.6317	3.8507	-86.7920	27.7000 
493.448	-0.0117	0.0356	1.0249	0.6482	3.8397	-86.7975	27.6800 
493.489	-0.0098	0.0464	1.0313	0.6592	3.8232	-86.8030	27.6800 
493.491	-0.0098	0.0479	1.0313	0.6866	3.8123	-86.8140	27.6800 
493.508	-0.0063	0.0400	1.0308	0.7141	3.7958	-86.8304	27.6800 
493.528	-0.0049	0.0439	1.0283	0.7361	3.7848	-86.8469	27.6900 
493.548	-0.0078	0.0410	1.0288	0.7526	3.7683	-86.8634	27.6700 
493.568	-0.0098	0.0410	1.0283	0.7745	3.7463	-86.8799	27.6700 
493.588	-0.0103	0.0435	1.0249	0.7910	3.7299	-86.8854	27.6900 
493.611	-0.0083	0.0430	1.0249	0.8020	3.7189	-86.8964	27.6800 
493.628	-0.0117	0.0469	1.0259	0.7910	3.7079	-86.9183	27.6700 
493.689	-0.0073	0.0479	1.0303	0.7581	3.7079	-86.9403	27.6900 
493.691	-0.0059	0.0435	1.0298	0.7086	3.7079	-86.9897	27.6700 
493.691	-0.0059	0.0449	1.0308	0.6702	3.7079	-87.0282	27.6800 
493.707	-0.0083	0.0425	1.0273	0.6482	3.6969	-87.0557	27.6800 
493.727	-0.0083	0.0435	1.0273	0.6317	3.6969	-87.0776	27.6900 
493.747	-0.0137	0.0464	1.0293	0.6262	3.6914	-87.1051	27.7100 
493.767	-0.0107	0.0410	1.0313	0.6207	3.6914	-87.1216	27.7000 
493.788	-0.0068	0.0396	1.0293	0.6207	3.6859	-87.1326	27.6900 
493.809	-0.0059	0.0410	1.0254	0.6152	3.6804	-87.1381	27.6900 
493.827	-0.0093	0.0547	1.0317	0.6042	3.6804	-87.1381	27.6900 
493.875	-0.0083	0.0464	1.0342	0.5768	3.6804	-87.1381	27.7000 
493.877	-0.0098	0.0439	1.0293	0.5603	3.6804	-87.1436	27.7000 
493.887	-0.0068	0.0493	1.0273	0.5438	3.6749	-87.1381	27.7000 
493.907	-0.0068	0.0161	1.0215	0.5164	3.6694	-87.1655	27.6900 
493.926	-0.0044	0.0459	1.0308	0.5054	3.6694	-87.1930	27.7000 
493.946	-0.0068	0.0493	1.0356	0.5109	3.6639	-87.1985	27.6900 
493.966	-0.0034	0.0425	1.0293	0.5219	3.6475	-87.1985	27.7000 
493.985	-0.0063	0.0400	1.0244	0.5383	3.6255	-87.1930	27.6800 
494.006	-0.0034	0.0347	1.0259	0.5493	3.6035	-87.1875	27.6800 
494.026	-0.0024	0.0381	1.0269	0.5548	3.5870	-87.1930	27.7000 
494.059	-0.0015	0.0469	1.0347	0.5658	3.5706	-87.1985	27.7000 
494.066	-0.0059	0.0391	1.0327	0.5823	3.5596	-87.1985	27.7000 
494.086	-0.0078	0.0410	1.0313	0.5988	3.5541	-87.2095	27.6900 
494.106	-0.0034	0.0430	1.0269	0.6262	3.5376	-87.2095	27.7000 
494.126	-0.0073	0.0420	1.0264	0.6592	3.5211	-87.2095	27.7000 
494.147	-0.0034	0.0469	1.0269	0.6921	3.5046	-87.1985	27.6900 
494.165	0.0010	0.0439	1.0278	0.7251	3.4882	-87.1875	27.6800 
494.185	-0.0059	0.0518	1.0313	0.7471	3.4772	-87.1765	27.6900 
494.205	-0.0083	0.0508	1.0322	0.7581	3.4717	-87.1765	27.7000 
494.224	-0.0024	0.0469	1.0313	0.7526	3.4772	-87.1930	27.7000 
494.245	-0.0029	0.0469	1.0293	0.7581	3.4827	-87.2150	27.7000 
494.296	-0.0029	0.0439	1.0278	0.7581	3.4827	-87.2314	27.7000 
494.299	-0.0015	0.0439	1.0273	0.7635	3.4827	-87.2424	27.7000 
494.304	-0.0010	0.0444	1.0278	0.7745	3.4772	-87.2589	27.7000 
494.324	-0.0068	0.0469	1.0269	0.7855	3.4772	-87.2754	27.7100 
494.344	-0.0059	0.0444	1.0283	0.8020	3.4827	-87.2864	27.6900 
494.364	-0.0059	0.0449	1.0278	0.8185	3.4882	-87.2974	27.7000 
494.385	-0.0029	0.0439	1.0293	0.8405	3.4827	-87.2974	27.7000 
494.404	-0.0054	0.0557	1.0337	0.8624	3.4827	-87.2754	27.7100 
494.425	-0.0034	0.0522	1.0332	0.8679	3.4882	-87.2589	27.7000 
494.444	-0.0049	0.0386	1.0269	0.8789	3.4882	-87.2699	27.6800 
494.482	-0.0015	0.0566	1.0244	0.9119	3.4991	-87.2699	27.7000 
494.484	-0.0044	0.0313	1.0220	0.9448	3.5046	-87.2864	27.7100 
494.504	-0.0034	0.0518	1.0332	1.0052	3.4991	-87.2809	27.7000 
494.524	-0.0029	0.0586	1.0376	1.0767	3.4991	-87.2479	27.7100 
494.544	-0.0029	0.0537	1.0327	1.1371	3.4882	-87.2260	27.7100 
494.563	-0.0044	0.0522	1.0205	1.2030	3.4717	-87.1930	27.7000 
494.583	-0.0054	0.0488	1.0195	1.2415	3.4497	-87.1545	27.7100 
494.603	-0.0039	0.0498	1.0254	1.2579	3.4387	-87.1326	27.7100 
494.623	-0.0049	0.0557	1.0298	1.2909	3.4332	-87.1106	27.7000 
494.667	-0.0039	0.0518	1.0273	1.3293	3.4277	-87.0886	27.7000 
494.670	-0.0020	0.0518	1.0293	1.3623	3.4222	-87.0667	27.6900 
494.683	-0.0054	0.0518	1.0234	1.3953	3.4222	-87.0502	27.7100 
494.702	-0.0063	0.0566	1.0225	1.4502	3.4222	-87.0117	27.7000 
494.722	-0.0044	0.0581	1.0249	1.5106	3.4167	-86.9568	27.7200 
494.742	-0.0073	0.0645	1.0303	1.5710	3.4167	-86.8909	27.7300 
494.762	-0.0039	0.0649	1.0317	1.6315	3.4167	-86.8250	27.7000 
494.782	-0.0098	0.0649	1.0327	1.6754	3.4222	-86.7590	27.7100 
494.803	-0.0063	0.0640	1.0288	1.7029	3.4387	-86.6986	27.7100 
494.822	-0.0005	0.0586	1.0234	1.7249	3.4497	-86.6327	27.7200 
494.842	0.0015	0.0610	1.0229	1.7413	3.4662	-86.5778	27.7100 
494.862	-0.0063	0.0649	1.0244	1.7633	3.4772	-86.5283	27.7100 
494.920	-0.0093	0.0601	1.0283	1.7853	3.4827	-86.4844	27.7200 
494.922	-0.0063	0.0605	1.0239	1.8018	3.4991	-86.4514	27.6900 
494.922	-0.0034	0.0664	1.0273	1.8182	3.5101	-86.4185	27.7100 
494.941	-0.0098	0.0659	1.0278	1.8402	3.5211	-86.3910	27.7100 
494.962	0.0010	0.0635	1.0293	1.8622	3.5266	-86.3690	27.7000 
494.981	0.0010	0.0664	1.0264	1.8677	3.5266	-86.3416	27.7000 
495.001	-0.0005	0.0669	1.0293	1.8512	3.5321	-86.3306	27.7100 
495.023	-0.0054	0.0498	1.0273	1.8237	3.5431	-86.3525	27.7200 
495.041	-0.0049	0.0615	1.0239	1.8018	3.5596	-86.3745	27.7100 
495.061	-0.0088	0.0454	1.0215	1.7688	3.5760	-86.4130	27.7100 
495.117	-0.0103	0.0576	1.0254	1.7578	3.5980	-86.4514	27.6900 
495.119	-0.0068	0.0679	1.0288	1.7633	3.6090	-86.4569	27.7100 
495.121	-0.0005	0.0723	1.0264	1.7853	3.6090	-86.4624	27.7000 
495.140	-0.0020	0.0635	1.0195	1.8182	3.6035	-86.4679	27.7000 
495.160	-0.0063	0.0596	1.0195	1.8292	3.5870	-86.4734	27.7100 
495.180	-0.0093	0.0649	1.0239	1.8182	3.5870	-86.4899	27.7100 
495.200	-0.0127	0.0752	1.0317	1.7963	3.5980	-86.5009	27.7100 
495.220	-0.0112	0.0620	1.0283	1.7853	3.5980	-86.5118	27.7300 
495.240	-0.0093	0.0552	1.0278	1.7688	3.6035	-86.5283	27.7100 
495.259	-0.0078	0.0562	1.0229	1.7578	3.6090	-86.5393	27.7100 
495.314	-0.0029	0.0649	1.0205	1.7578	3.6090	-86.5448	27.7300 
495.316	-0.0068	0.0576	1.0195	1.7633	3.6145	-86.5558	27.7100 
495.320	-0.0044	0.0674	1.0264	1.7798	3.6145	-86.5613	27.7300 
495.340	-0.0093	0.0698	1.0317	1.7908	3.6200	-86.5613	27.7000 
495.360	-0.0127	0.0698	1.0283	1.8018	3.6310	-86.5558	27.7200 
495.379	-0.0132	0.0674	1.0259	1.8018	3.6530	-86.5448	27.7200 
495.400	-0.0063	0.0596	1.0229	1.7963	3.6639	-86.5393	27.7000 
495.419	-0.0059	0.0615	1.0254	1.7798	3.6804	-86.5338	27.7100 
495.441	-0.0054	0.0615	1.0264	1.7688	3.6914	-86.5338	27.7300 
495.459	-0.0063	0.0576	1.0264	1.7578	3.7079	-86.5393	27.7100 
495.504	-0.0088	0.0640	1.0259	1.7468	3.7244	-86.5503	27.7100 
495.506	-0.0098	0.0586	1.0254	1.7358	3.7354	-86.5723	27.7300 
495.520	-0.0112	0.0586	1.0264	1.7249	3.7518	-86.5942	27.7100 
495.539	-0.0137	0.0605	1.0308	1.7249	3.7683	-86.6217	27.7200 
495.558	-0.0054	0.0596	1.0283	1.7249	3.7793	-86.6547	27.7300 
495.587	-0.0093	0.0625	1.0288	1.7249	3.7903	-86.6876	27.7100 
495.599	-0.0093	0.0679	1.0347	1.7139	3.8068	-86.7151	27.7100 
495.618	-0.0137	0.0547	1.0303	1.7029	3.8232	-86.7700	27.7100 
495.639	-0.0156	0.0684	1.0259	1.6919	3.8452	-86.8030	27.7200 
495.703	-0.0122	0.0522	1.0195	1.6864	3.8672	-86.8524	27.7200 
495.705	-0.0176	0.0513	1.0259	1.6974	3.8837	-86.9019	27.7200 
495.705	-0.0151	0.0713	1.0352	1.7139	3.9056	-86.9128	27.7100 
495.718	-0.0122	0.0669	1.0322	1.7358	3.9111	-86.9238	27.7100 
495.738	-0.0068	0.0625	1.0264	1.7578	3.9111	-86.9293	27.7300 
495.758	-0.0093	0.0591	1.0186	1.7688	3.9111	-86.9293	27.7100 
495.778	-0.0122	0.0576	1.0254	1.7633	3.9056	-86.9403	27.7100 
495.798	-0.0142	0.0649	1.0264	1.7413	3.9166	-86.9458	27.7100 
495.818	-0.0146	0.0615	1.0283	1.7194	3.9276	-86.9568	27.7200 
495.838	-0.0176	0.0605	1.0313	1.7084	3.9386	-86.9623	27.7000 
495.893	-0.0161	0.0591	1.0293	1.7029	3.9441	-86.9458	27.7000 
495.895	-0.0088	0.0605	1.0249	1.7029	3.9386	-86.9293	27.7000 
495.897	-0.0112	0.0562	1.0215	1.7084	3.9276	-86.9019	27.7200 
495.917	-0.0117	0.0605	1.0244	1.6919	3.9166	-86.8634	27.7400 
495.937	-0.0171	0.0566	1.0278	1.6699	3.9111	-86.8414	27.7300 
495.957	-0.0156	0.0640	1.0317	1.6534	3.9111	-86.8140	27.7300 
495.977	-0.0132	0.0620	1.0337	1.6425	3.9111	-86.7975	27.7300 
496.002	-0.0112	0.0562	1.0308	1.6315	3.9056	-86.7810	27.7000 
496.017	-0.0127	0.0527	1.0269	1.6260	3.9056	-86.7590	27.7200 
496.038	-0.0127	0.0503	1.0190	1.6205	3.9056	-86.7535	27.7000 
496.091	-0.0068	0.0576	1.0249	1.6150	3.9111	-86.7590	27.7100 
496.094	-0.0093	0.0518	1.0278	1.6205	3.9166	-86.7645	27.7100 
496.096	-0.0103	0.0571	1.0293	1.6315	3.9166	-86.7590	27.7300 
496.116	-0.0112	0.0571	1.0288	1.6425	3.9056	-86.7480	27.7200 
496.135	-0.0137	0.0508	1.0249	1.6589	3.8947	-86.7316	27.7200 
496.156	-0.0132	0.0522	1.0273	1.6699	3.8837	-86.7206	27.7100 
496.175	-0.0107	0.0527	1.0293	1.6919	3.8837	-86.7206	27.7200 
496.196	-0.0112	0.0566	1.0264	1.7084	3.8782	-86.7206	27.7300 
496.216	-0.0112	0.0635	1.0273	1.7249	3.8727	-86.7206	27.7300 
496.235	-0.0088	0.0591	1.0288	1.7249	3.8782	-86.7316	27.7300 
496.286	-0.0142	0.0542	1.0254	1.7303	3.8727	-86.7426	27.7400 
496.291	-0.0132	0.0684	1.0322	1.7523	3.8727	-86.7480	27.7400 
496.295	-0.0127	0.0400	1.0186	1.7633	3.8727	-86.7645	27.7200 
496.315	-0.0122	0.0659	1.0293	1.7853	3.8727	-86.7810	27.7300 
496.335	-0.0127	0.0581	1.0313	1.7963	3.8782	-86.7755	27.7400 
496.355	-0.0107	0.0601	1.0254	1.8073	3.8727	-86.7755	27.7400 
496.375	-0.0117	0.0562	1.0249	1.8347	3.8672	-86.7755	27.7400 
496.394	-0.0098	0.0518	1.0259	1.8347	3.8617	-86.7865	27.7300 
496.414	-0.0117	0.0615	1.0327	1.8182	3.8562	-86.7975	27.7200 
496.435	-0.0117	0.0620	1.0298	1.7963	3.8562	-86.8140	27.7200 
496.455	-0.0181	0.0586	1.0283	1.7908	3.8617	-86.8414	27.7500 
496.476	-0.0186	0.0635	1.0293	1.7853	3.8727	-86.8579	27.7300 
496.534	-0.0083	0.0527	1.0254	1.7853	3.8727	-86.8579	27.7300 
496.536	-0.0059	0.0566	1.0264	1.7853	3.8727	-86.8469	27.7400 
496.536	-0.0151	0.0630	1.0259	1.7853	3.8727	-86.8304	27.7400 
496.554	-0.0127	0.0664	1.0273	1.7853	3.8727	-86.8030	27.7200 
496.574	-0.0132	0.0605	1.0288	1.8073	3.8672	-86.7755	27.7300 
496.594	-0.0132	0.0635	1.0283	1.8292	3.8617	-86.7535	27.7200 
496.614	-0.0151	0.0684	1.0327	1.8457	3.8617	-86.7371	27.7500 
496.634	-0.0161	0.0552	1.0298	1.8567	3.8562	-86.7041	27.7200 
496.653	-0.0078	0.0527	1.0239	1.8732	3.8452	-86.6711	27.7200 
496.674	-0.0078	0.0571	1.0249	1.8896	3.8397	-86.6492	27.7300 
496.720	-0.0137	0.0654	1.0303	1.8896	3.8397	-86.6327	27.7300 
496.723	-0.0122	0.0625	1.0288	1.8896	3.8452	-86.6162	27.7500 
496.733	-0.0132	0.0601	1.0327	1.8951	3.8452	-86.6052	27.7300 
496.753	-0.0176	0.0591	1.0283	1.9116	3.8452	-86.5942	27.7600 
496.773	-0.0107	0.0605	1.0225	1.9226	3.8452	-86.5778	27.7300 
496.793	-0.0093	0.0630	1.0254	1.9281	3.8452	-86.5723	27.7300 
496.813	-0.0103	0.0640	1.0273	1.9391	3.8562	-86.5613	27.7400 
496.832	-0.0146	0.0610	1.0337	1.9556	3.8617	-86.5558	27.7300 
496.852	-0.0220	0.0664	1.0376	1.9611	3.8727	-86.5393	27.7200 
496.872	-0.0381	0.0811	1.0454	1.9501	3.8947	-86.5009	27.7300 
496.913	-0.0410	0.0757	1.0298	1.8567	3.9276	-86.4514	27.7300 
496.914	-0.0132	0.0483	1.0171	1.7194	3.9551	-86.4240	27.7300 
496.932	0.0059	0.0449	1.0132	1.5875	3.9606	-86.4130	27.7300 
496.952	0.0015	0.0435	1.0166	1.4667	3.9551	-86.4075	27.7300 
496.972	-0.0156	0.0713	1.0322	1.3843	3.9661	-86.3525	27.7400 
496.992	-0.0171	0.0654	1.0410	1.3239	3.9716	-86.2592	27.7400 
497.012	-0.0195	0.0562	1.0361	1.2744	3.9551	-86.1603	27.7400 
497.032	-0.0151	0.0371	1.0283	1.2250	3.9276	-86.0559	27.7400 
497.053	0.0044	0.0288	1.0200	1.1700	3.8837	-85.9790	27.7400 
497.098	0.0166	0.0298	1.0049	1.1316	3.8397	-85.9625	27.7300 
497.100	0.0098	0.0366	1.0098	1.1151	3.8123	-86.0010	27.7400 
497.112	-0.0034	0.0366	1.0195	1.1261	3.7848	-86.0779	27.7300 
497.131	-0.0142	0.0493	1.0337	1.1536	3.7628	-86.1493	27.7300 
497.151	-0.0234	0.0601	1.0449	1.2030	3.7354	-86.1823	27.7500 
497.171	-0.0186	0.0566	1.0366	1.2799	3.6969	-86.1713	27.7400 
497.191	-0.0166	0.0713	1.0337	1.3843	3.6584	-86.1273	27.7400 
497.211	-0.0215	0.0723	1.0259	1.4941	3.6200	-86.0669	27.7200 
497.231	-0.0190	0.0645	1.0273	1.5875	3.5925	-86.0010	27.7400 
497.251	-0.0137	0.0625	1.0283	1.6479	3.5815	-85.9406	27.7300 
497.273	0.0078	0.0522	1.0254	1.6754	3.5815	-85.9131	27.7300 
497.291	0.0122	0.0415	1.0220	1.6699	3.5815	-85.9131	27.7500 
497.339	-0.0063	0.0649	1.0298	1.6534	3.5870	-85.9351	27.7600 
497.341	-0.0093	0.0630	1.0249	1.6534	3.5925	-85.9351	27.7400 
497.350	-0.0107	0.0557	1.0215	1.6589	3.5925	-85.9241	27.7400 
497.370	-0.0093	0.0571	1.0303	1.6754	3.5980	-85.9241	27.7600 
497.390	-0.0088	0.0571	1.0273	1.7084	3.5980	-85.9241	27.7500 
497.410	-0.0083	0.0581	1.0273	1.7358	3.6035	-85.9351	27.7400 
497.430	-0.0054	0.0625	1.0229	1.7523	3.6145	-85.9406	27.7500 
497.450	-0.0063	0.0566	1.0234	1.7633	3.6200	-85.9460	27.7400 
497.470	-0.0063	0.0576	1.0254	1.7743	3.6255	-85.9570	27.7400 
497.490	-0.0059	0.0542	1.0303	1.7798	3.6365	-85.9680	27.7600 
497.524	-0.0117	0.0801	1.0298	1.7743	3.6475	-85.9735	27.7500 
497.530	-0.0176	0.0591	1.0273	1.7578	3.6639	-85.9790	27.7600 
497.550	-0.0142	0.0718	1.0273	1.7468	3.6859	-85.9845	27.7600 
497.569	-0.0063	0.0498	1.0190	1.7303	3.7024	-85.9900	27.7400 
497.589	-0.0054	0.0386	1.0200	1.7029	3.7134	-86.0229	27.7500 
497.609	-0.0078	0.0635	1.0298	1.6754	3.7244	-86.0394	27.7300 
497.629	-0.0117	0.0630	1.0303	1.6644	3.7299	-86.0394	27.7400 
497.649	-0.0142	0.0610	1.0288	1.6699	3.7244	-86.0339	27.7600 
497.671	-0.0132	0.0498	1.0205	1.6754	3.7134	-86.0175	27.7600 
497.711	-0.0107	0.0449	1.0195	1.6589	3.7079	-86.0065	27.7400 
497.713	-0.0078	0.0581	1.0269	1.6315	3.7134	-86.0120	27.7600 
497.729	-0.0107	0.0635	1.0254	1.6095	3.7244	-86.0120	27.7500 
497.749	-0.0093	0.0566	1.0327	1.5985	3.7299	-86.0010	27.7400 
497.768	-0.0078	0.0562	1.0288	1.5820	3.7244	-85.9735	27.7400 
497.789	-0.0103	0.0591	1.0308	1.5656	3.7244	-85.9515	27.7500 
497.809	-0.0127	0.0532	1.0264	1.5491	3.7244	-85.9406	27.7600 
497.828	-0.0112	0.0542	1.0264	1.5326	3.7244	-85.9186	27.7600 
497.849	-0.0068	0.0552	1.0293	1.5106	3.7299	-85.9021	27.7600 
497.901	-0.0049	0.0596	1.0342	1.4667	3.7244	-85.8911	27.7700 
497.904	-0.0093	0.0591	1.0313	1.4172	3.7244	-85.8856	27.7700 
497.908	-0.0078	0.0488	1.0234	1.3898	3.7189	-85.8911	27.7800 
497.929	-0.0088	0.0488	1.0200	1.3568	3.7189	-85.9076	27.7700 
497.948	-0.0112	0.0479	1.0229	1.3074	3.7189	-85.9351	27.7500 
497.968	-0.0107	0.0566	1.0273	1.2744	3.7244	-85.9625	27.7600 
497.988	-0.0122	0.0532	1.0317	1.2524	3.7244	-85.9680	27.7500 
498.008	-0.0112	0.0498	1.0317	1.2305	3.7244	-85.9735	27.7500 
498.028	-0.0078	0.0527	1.0288	1.2140	3.7189	-85.9680	27.7600 
498.047	-0.0073	0.0508	1.0264	1.2030	3.7079	-85.9680	27.7500 
498.067	-0.0073	0.0454	1.0244	1.1975	3.6969	-85.9790	27.7600 
498.086	-0.0098	0.0488	1.0273	1.1920	3.6914	-85.9900	27.7600 
498.146	-0.0112	0.0425	1.0220	1.1810	3.6914	-85.9955	27.7600 
498.148	-0.0112	0.0659	1.0313	1.1591	3.6969	-86.0010	27.7600 
498.148	-0.0122	0.0503	1.0278	1.1481	3.7134	-86.0065	27.7500 
498.167	-0.0083	0.0557	1.0298	1.1481	3.7244	-86.0065	27.7500 
498.187	-0.0088	0.0488	1.0332	1.1316	3.7354	-86.0065	27.7400 
498.206	-0.0107	0.0288	1.0244	1.1151	3.7463	-86.0175	27.7600 
498.227	-0.0088	0.0532	1.0278	1.1206	3.7573	-86.0229	27.7500 
498.246	-0.0093	0.0547	1.0332	1.1261	3.7683	-86.0120	27.7500 
498.266	-0.0078	0.0493	1.0308	1.1371	3.7683	-86.0065	27.7400 
498.289	-0.0103	0.0425	1.0225	1.1371	3.7683	-86.0120	27.7600 
498.332	-0.0117	0.0454	1.0215	1.1316	3.7793	-86.0229	27.7400 
498.334	-0.0068	0.0498	1.0322	1.1206	3.7848	-86.0339	27.7500 
498.346	-0.0088	0.0479	1.0308	1.1261	3.7848	-86.0339	27.7600 
498.366	-0.0161	0.0439	1.0313	1.1261	3.7848	-86.0394	27.7500 
498.385	-0.0122	0.0415	1.0308	1.1261	3.7903	-86.0614	27.7500 
498.406	-0.0103	0.0435	1.0273	1.1206	3.7958	-86.0889	27.7400 
498.426	-0.0098	0.0513	1.0283	1.1151	3.7903	-86.0944	27.7400 
498.445	-0.0156	0.0449	1.0273	1.1206	3.7793	-86.0889	27.7500 
498.465	-0.0112	0.0425	1.0322	1.1151	3.7683	-86.0834	27.7300 
498.519	-0.0063	0.0459	1.0293	1.1096	3.7518	-86.0944	27.7500 
498.521	-0.0083	0.0498	1.0273	1.1096	3.7408	-86.0999	27.7500 
498.525	-0.0137	0.0493	1.0264	1.1041	3.7299	-86.1163	27.7500 
498.545	-0.0137	0.0454	1.0273	1.0931	3.7244	-86.1218	27.7400 
498.565	-0.0103	0.0396	1.0278	1.0767	3.7134	-86.1383	27.7300 
498.585	-0.0059	0.0439	1.0269	1.0547	3.7079	-86.1548	27.7300 
498.606	-0.0073	0.0425	1.0264	1.0327	3.7024	-86.1713	27.7400 
498.625	-0.0093	0.0449	1.0293	1.0107	3.6969	-86.1877	27.7600 
498.646	-0.0122	0.0459	1.0283	0.9943	3.6859	-86.1987	27.7500 
498.665	-0.0117	0.0444	1.0303	0.9778	3.6804	-86.1987	27.7500 
498.687	-0.0078	0.0400	1.0259	0.9723	3.6694	-86.1877	27.7500 
498.704	-0.0093	0.0444	1.0259	0.9723	3.6530	-86.1713	27.7600 
498.768	-0.0127	0.0469	1.0298	0.9833	3.6420	-86.1438	27.7600 
498.770	-0.0083	0.0498	1.0288	0.9998	3.6310	-86.1053	27.7400 
498.770	-0.0063	0.0454	1.0322	1.0162	3.6255	-86.0779	27.7500 
498.785	-0.0098	0.0332	1.0288	1.0107	3.6255	-86.0614	27.7500 
498.804	-0.0122	0.0493	1.0337	0.9998	3.6310	-86.0504	27.7600 
498.825	-0.0112	0.0303	1.0225	0.9833	3.6365	-86.0504	27.7600 
498.844	-0.0054	0.0518	1.0308	0.9833	3.6475	-86.0669	27.7400 
498.864	-0.0059	0.0513	1.0303	0.9998	3.6530	-86.0614	27.7500 
498.884	-0.0073	0.0479	1.0303	1.0107	3.6530	-86.0669	27.7500 
498.903	-0.0073	0.0464	1.0249	1.0327	3.6530	-86.0669	27.7600 
498.957	-0.0088	0.0376	1.0205	1.0492	3.6530	-86.0614	27.7500 
498.959	-0.0112	0.0425	1.0254	1.0492	3.6584	-86.0669	27.7600 
498.963	-0.0137	0.0513	1.0327	1.0547	3.6749	-86.0779	27.7600 
498.983	-0.0068	0.0459	1.0371	1.0657	3.6914	-86.0779	27.7600 
499.003	-0.0083	0.0469	1.0308	1.0657	3.7024	-86.0834	27.7600 
499.023	-0.0122	0.0420	1.0264	1.0657	3.7079	-86.0889	27.7600 
499.043	-0.0137	0.0415	1.0244	1.0712	3.7134	-86.0889	27.7500 
499.062	-0.0117	0.0444	1.0254	1.0712	3.7189	-86.0944	27.7700 
499.084	-0.0049	0.0479	1.0298	1.0767	3.7244	-86.0999	27.7600 
499.103	-0.0107	0.0493	1.0308	1.0822	3.7244	-86.0944	27.7700 
499.144	-0.0156	0.0518	1.0332	1.0876	3.7299	-86.0944	27.7600 
499.146	-0.0166	0.0493	1.0303	1.0931	3.7354	-86.0944	27.7600 
499.162	-0.0107	0.0459	1.0278	1.0931	3.7354	-86.0999	27.7600 
499.182	-0.0117	0.0464	1.0288	1.0876	3.7408	-86.1053	27.7600 
499.202	-0.0112	0.0449	1.0273	1.0876	3.7463	-86.1108	27.7700 
499.222	-0.0117	0.0513	1.0293	1.0931	3.7463	-86.1163	27.7700 
499.242	-0.0093	0.0508	1.0288	1.1041	3.7408	-86.1218	27.7600 
499.262	-0.0127	0.0449	1.0293	1.1151	3.7354	-86.1273	27.7600 
499.282	-0.0112	0.0479	1.0259	1.1151	3.7244	-86.1328	27.7700 
499.331	-0.0112	0.0430	1.0239	1.1096	3.7189	-86.1383	27.7800 
499.333	-0.0117	0.0542	1.0327	1.1096	3.7134	-86.1383	27.7800 
499.341	-0.0122	0.0464	1.0293	1.1096	3.7079	-86.1328	27.7600 
499.362	-0.0117	0.0454	1.0283	1.1096	3.6969	-86.1273	27.7500 
499.381	-0.0112	0.0596	1.0313	1.1151	3.6914	-86.1053	27.7700 
499.401	-0.0088	0.0405	1.0288	1.1096	3.6859	-86.0889	27.7600 
499.421	-0.0088	0.0537	1.0283	1.1096	3.6804	-86.0724	27.7700 
499.441	-0.0093	0.0566	1.0278	1.1041	3.6859	-86.0504	27.7800 
499.461	-0.0122	0.0293	1.0254	1.0931	3.6859	-86.0559	27.7700 
499.481	-0.0054	0.0522	1.0332	1.0986	3.6859	-86.0449	27.7600