StartTime: 2018-11-22 16:32:19.868
Time(s)	ax(g)	ay(g)	az(g)	AngleX(deg)	AngleY(deg)	AngleZ(deg)	T(Â°) 
589.465	0.1626	-0.0938	1.0137	-5.2405	-8.4595	2.3291	26.7700 
589.502	0.1641	-0.0908	1.0137	-5.2405	-8.4540	2.3236	26.7600 
589.505	0.1621	-0.0923	1.0146	-5.2405	-8.4540	2.3181	26.7600 
589.523	0.1636	-0.0918	1.0127	-5.2350	-8.4540	2.3126	26.7500 
589.543	0.1636	-0.0913	1.0117	-5.2295	-8.4540	2.3071	26.7500 
589.563	0.1631	-0.0908	1.0117	-5.2295	-8.4540	2.3016	26.7500 
589.582	0.1616	-0.0918	1.0156	-5.2240	-8.4540	2.2961	26.7700 
589.602	0.1631	-0.0923	1.0137	-5.2185	-8.4540	2.2906	26.7700 
589.622	0.1641	-0.0918	1.0127	-5.2185	-8.4595	2.2906	26.7600 
589.642	0.1631	-0.0903	1.0122	-5.2130	-8.4595	2.2961	26.7600 
589.662	0.1636	-0.0908	1.0127	-5.2075	-8.4595	2.2961	26.7700 
589.681	0.1626	-0.0938	1.0161	-5.1965	-8.4595	2.2906	26.7800 
589.701	0.1641	-0.0923	1.0132	-5.1855	-8.4705	2.2906	26.7800 
589.740	0.1641	-0.0898	1.0161	-5.1691	-8.4760	2.2906	26.7800 
589.742	0.1636	-0.0898	1.0151	-5.1526	-8.4869	2.2852	26.7500 
589.761	0.1641	-0.0884	1.0112	-5.1416	-8.4924	2.2852	26.7800 
589.782	0.1665	-0.0903	1.0122	-5.1251	-8.4979	2.2852	26.7800 
589.801	0.1646	-0.0908	1.0151	-5.1251	-8.4924	2.2906	26.7800 
589.821	0.1641	-0.0913	1.0195	-5.1141	-8.4924	2.2961	26.7800 
589.842	0.1631	-0.0923	1.0195	-5.1031	-8.4924	2.2961	26.7900 
589.861	0.1641	-0.0918	1.0210	-5.0812	-8.4924	2.2852	26.7700 
589.882	0.1685	-0.0869	1.0137	-5.0482	-8.4924	2.2742	26.7800 
589.929	0.1641	-0.0859	1.0098	-5.0208	-8.4924	2.2742	26.7700 
589.932	0.1680	-0.0879	1.0107	-5.0043	-8.4814	2.2797	26.7900 
589.941	0.1699	-0.0889	1.0132	-4.9878	-8.4760	2.2797	26.7900 
589.961	0.1694	-0.0889	1.0151	-4.9823	-8.4650	2.2742	26.7800 
589.981	0.1582	-0.0830	1.0146	-4.9768	-8.4430	2.2632	26.7700 
590.001	0.1528	-0.0850	1.0161	-4.9713	-8.4210	2.2467	26.7800 
590.021	0.1616	-0.0913	1.0151	-4.9493	-8.4155	2.2302	26.7800 
590.040	0.1680	-0.0874	1.0127	-4.8999	-8.4210	2.2192	26.7700 
590.060	0.1733	-0.0889	1.0059	-4.8450	-8.4210	2.2028	26.7800 
590.081	0.1616	-0.0840	1.0083	-4.8010	-8.4155	2.1863	26.7700 
590.123	0.1533	-0.0850	1.0190	-4.7571	-8.3990	2.1588	26.7700 
590.124	0.1504	-0.0850	1.0229	-4.6967	-8.3990	2.1094	26.7800 
590.140	0.1636	-0.0796	1.0151	-4.5923	-8.4210	2.0435	26.7800 
590.160	0.1660	-0.0723	1.0088	-4.4659	-8.4650	1.9940	26.7800 
590.180	0.1567	-0.0684	1.0137	-4.3396	-8.5089	1.9666	26.7800 
590.199	0.1602	-0.0674	1.0146	-4.2188	-8.5474	1.9391	26.7900 
590.220	0.1646	-0.0664	1.0137	-4.1199	-8.5803	1.9116	26.7800 
590.239	0.1724	-0.0698	1.0122	-4.0430	-8.6133	1.8896	26.7800 
590.259	0.1597	-0.0684	1.0205	-3.9825	-8.6353	1.8677	26.7600 
590.279	0.1548	-0.0654	1.0210	-3.9111	-8.6627	1.8237	26.7800 
590.299	0.1670	-0.0601	1.0083	-3.8287	-8.7177	1.7853	26.7800 
590.319	0.1563	-0.0586	1.0137	-3.7573	-8.7781	1.7523	26.7700 
590.362	0.1646	-0.0654	1.0171	-3.7024	-8.8715	1.7029	26.7800 
590.365	0.1763	-0.0615	1.0083	-3.6530	-8.9758	1.6644	26.7900 
590.379	0.1812	-0.0630	1.0049	-3.6035	-9.0747	1.6370	26.7900 
590.399	0.1616	-0.0527	1.0200	-3.5760	-9.1791	1.6095	26.7900 
590.418	0.1846	-0.0518	0.9912	-3.5925	-9.2889	1.5765	26.7900 
590.439	0.1787	-0.0664	1.0122	-3.6365	-9.4098	1.5601	26.7800 
590.458	0.1909	-0.0703	1.0049	-3.7079	-9.5361	1.5710	26.7900 
590.478	0.1855	-0.0708	1.0122	-3.7848	-9.6680	1.5820	26.7800 
590.498	0.1792	-0.0542	1.0015	-3.8507	-9.7833	1.5820	26.8000 
590.557	0.1958	-0.0537	0.9907	-3.9386	-9.9097	1.5710	26.8000 
590.559	0.2085	-0.0615	0.9839	-4.1528	-10.0745	1.6095	26.8000 
590.559	0.2061	-0.0801	1.0146	-4.4659	-10.1953	1.6809	26.7900 
590.578	0.1953	-0.0967	1.0225	-4.8285	-10.2448	1.7578	26.8000 
590.598	0.1973	-0.0972	1.0151	-5.1471	-10.2502	1.8182	26.8000 
590.618	0.1929	-0.0908	1.0103	-5.4547	-10.2283	1.8732	26.7800 
590.637	0.1924	-0.1011	1.0146	-5.7898	-10.2063	1.9391	26.7900 
590.657	0.2041	-0.1050	1.0039	-6.1523	-10.1788	2.0270	26.8000 
590.677	0.1875	-0.1104	1.0000	-6.5424	-10.1184	2.1204	26.7800 
590.697	0.1709	-0.1079	1.0039	-6.9379	-10.0085	2.2083	26.7800 
590.744	0.1831	-0.1211	0.9907	-7.3334	-9.8822	2.2852	26.7800 
590.746	0.1816	-0.1211	0.9995	-7.7344	-9.7064	2.3566	26.7800 
590.757	0.1851	-0.1318	0.9922	-8.2178	-9.4922	2.4554	26.8100 
590.776	0.1738	-0.1558	1.0034	-8.8000	-9.2175	2.5928	26.8000 
590.801	0.1680	-0.1558	0.9912	-9.3933	-8.8330	2.6971	26.7800 
590.816	0.1577	-0.1704	1.0010	-9.9976	-8.3826	2.7521	26.8000 
590.836	0.1602	-0.1802	1.0039	-10.5908	-7.9266	2.7740	26.8100 
590.856	0.1553	-0.1826	1.0015	-11.2280	-7.4542	2.8015	26.8100 
590.876	0.1421	-0.2417	1.0298	-11.8982	-6.9763	2.8180	26.8100 
590.941	0.1309	-0.2227	1.0190	-12.3706	-6.4819	2.7795	26.8100 
590.943	0.1089	-0.2275	1.0283	-12.7332	-6.0095	2.7026	26.8000 
590.943	0.1021	-0.2207	1.0249	-13.1342	-5.5920	2.5873	26.8100 
590.956	0.1113	-0.2246	1.0293	-13.6890	-5.2240	2.4445	26.8100 
590.976	0.1040	-0.2344	1.0225	-14.5239	-4.8834	2.3236	26.8000 
590.995	0.1147	-0.2144	1.0264	-15.5786	-4.5758	2.2852	26.8100 
591.015	0.1152	-0.2192	1.0215	-16.9519	-4.2737	2.3456	26.8100 
591.036	0.1475	-0.1982	1.0488	-18.7482	-3.9551	2.6971	26.8400 
591.057	0.1411	0.0894	1.2583	-21.3794	-3.6694	3.4277	26.8200 
591.076	0.0938	-0.1089	1.4585	-27.0099	-3.4607	4.7021	26.8200 
591.096	0.1934	-0.1245	1.4536	-34.6509	-3.3508	6.4764	26.8200 
591.135	0.4673	-0.3408	1.3799	-43.6322	-2.6862	8.7341	26.8000 
591.139	0.7383	-0.7173	3.1011	-50.8337	-0.5054	9.5801	26.7900 
591.155	0.9556	0.3384	2.1196	-51.8610	1.2524	9.4043	26.8000 
591.175	0.6270	0.3291	0.8608	-49.5648	2.1039	9.1187	26.8100 
591.195	0.4126	0.2192	0.6143	-46.2305	2.7466	8.4814	26.8100 
591.215	0.5039	0.1646	0.7583	-43.2697	2.9608	8.1244	26.8000 
591.235	0.5186	0.0342	1.1650	-40.1605	2.4664	7.7728	26.8000 
591.254	0.3184	-0.0396	1.1729	-36.3538	1.5216	7.0807	26.7900 
591.274	-0.1060	-0.1211	0.8296	-31.7780	0.3790	6.1469	26.7900 
591.297	-0.2075	-0.1812	0.8491	-27.1967	-0.7361	5.4108	26.7900 
591.314	-0.1611	-0.2612	1.1577	-22.8790	-1.8292	5.0592	26.7800 
591.334	-0.1250	-0.2930	1.2725	-18.5669	-2.8235	4.8889	26.7900 
591.381	-0.1543	-0.3037	1.3125	-14.0845	-3.6639	4.7516	26.7800 
591.384	-0.1768	-0.3105	1.3345	-9.5636	-4.4550	4.6912	26.7800 
591.394	-0.1191	-0.3896	1.3833	-5.1746	-5.2954	4.8340	26.7800 
591.414	0.0532	-0.4546	1.3726	-1.0931	-6.2347	5.2789	26.7900 
591.433	0.3071	-0.4946	1.3848	2.6917	-7.3004	5.8447	26.7800 
591.454	0.3770	-0.4595	1.4038	6.2457	-8.4100	6.1798	26.7600 
591.474	0.4438	-0.4395	1.4644	9.4812	-9.5361	6.0919	26.7700 
591.495	0.4805	-0.4893	1.4541	12.5189	-10.7446	5.4492	26.7700 
591.513	0.3721	-0.6318	1.3794	15.4688	-11.8323	4.0759	26.7700 
591.533	0.1084	-0.7178	1.3872	18.2428	-12.3047	1.6534	26.7900 
591.568	-0.3701	-0.8086	1.0635	21.1981	-11.8542	-2.0325	26.7700 
591.573	-0.7266	-0.9189	0.8013	23.9447	-10.9808	-5.2899	26.7600 
591.593	-0.9673	-1.2720	0.6973	25.8948	-10.0800	-7.3718	26.7700 
591.613	-0.7490	-1.3877	0.3276	27.0758	-9.3823	-8.2343	26.7700 
591.633	-0.2383	-1.2236	0.2227	26.8835	-8.3331	-8.0695	26.7600 
591.653	-0.1245	-0.8774	0.3809	24.8511	-6.2238	-7.1906	26.7600 
591.674	0.8867	0.5342	0.6367	22.3956	-5.4877	-4.7076	26.7500 
591.693	0.7192	0.0659	0.7183	19.3964	-4.4055	-2.7795	26.7500 
591.713	-0.6914	0.0835	1.3979	15.4413	-2.9663	-2.2797	26.7500 
591.756	0.3413	-0.0742	1.5142	11.1237	-2.5928	-1.9006	26.7400 
591.758	-0.4106	-0.2451	2.1528	5.8667	-3.3563	-1.1481	26.7800 
591.772	0.1704	-0.1323	1.4180	2.7850	-4.3231	-1.1920	26.8000 
591.792	0.1929	-0.1055	1.1064	1.8073	-4.5044	-1.1865	26.8200 
591.812	0.1274	-0.1064	1.1235	1.2524	-4.5703	-1.1096	26.8200 
591.832	0.1064	-0.0747	1.0742	0.9229	-4.5868	-1.0602	26.7900 
591.852	0.1157	-0.0522	1.0181	0.8679	-4.6307	-1.0767	26.8000 
591.872	0.1440	-0.0522	1.0303	0.7581	-4.8230	-1.0931	26.8000 
591.891	0.1626	-0.0537	1.0073	0.5823	-5.0482	-1.0767	26.8100 
591.945	0.1606	-0.0635	1.0103	0.3680	-5.2405	-1.0107	26.8100 
591.947	0.1758	-0.0693	0.9990	-0.0330	-5.4382	-0.9009	26.8100 
591.951	0.1694	-0.0723	0.9888	-0.4504	-5.6525	-0.7581	26.8100 
591.971	0.1577	-0.1011	1.0249	-0.8240	-5.7458	-0.6042	26.8100 
591.991	0.1704	-0.1025	1.0205	-1.1371	-5.6799	-0.4779	26.8100 
592.011	0.1768	-0.0879	0.9956	-1.3898	-5.5865	-0.3461	26.8200 
592.031	0.1733	-0.0889	1.0024	-1.7029	-5.5042	-0.1758	26.8200 
592.050	0.1416	-0.1025	1.0244	-2.0544	-5.4053	0.0000	26.8000 
592.071	0.1396	-0.1069	1.0293	-2.3676	-5.3009	0.1813	26.8100 
592.090	0.1436	-0.1270	1.0288	-2.7026	-5.2130	0.3571	26.8000 
592.111	0.1343	-0.1196	1.0171	-3.0707	-5.0757	0.5383	26.8100 
592.130	0.1465	-0.1162	0.9951	-3.4277	-4.8120	0.7086	26.8200 
592.196	0.1353	-0.1055	0.9946	-3.8562	-4.4220	0.8679	26.8100 
592.198	0.1206	-0.1333	1.0083	-4.5319	-3.9771	1.0327	26.8100 
592.198	0.1055	-0.1504	1.0151	-5.3833	-3.4991	1.1865	26.8200 
592.210	0.0962	-0.1870	1.0352	-6.3007	-3.0267	1.3019	26.8200 
592.230	0.0996	-0.1987	1.0161	-7.3444	-2.6038	1.3788	26.8200 
592.250	0.0942	-0.1997	1.0083	-8.3716	-2.2083	1.4117	26.8100 
592.270	0.0830	-0.2314	1.0132	-9.1901	-1.7688	1.3843	26.8200 
592.289	0.0659	-0.2432	1.0298	-9.8328	-1.3733	1.2744	26.8500 
592.310	0.0688	-0.2471	1.0249	-10.5249	-1.0767	1.1426	26.8300 
592.329	0.0801	-0.2363	1.0371	-11.3983	-0.8240	1.0052	26.8400 
592.385	0.1011	-0.2490	1.0254	-12.4146	-0.5658	0.9229	26.8300 
592.387	0.1523	-0.2256	1.0474	-13.8977	-0.3461	1.1041	26.8400 
592.389	0.1206	-0.0854	1.0562	-16.0071	-0.1208	1.6809	26.8400 
592.409	0.0762	0.1523	1.5239	-19.3359	0.1154	2.8510	26.8600 
592.431	0.2476	0.0762	1.6831	-25.2411	0.6812	4.5813	26.8500 
592.450	0.5869	-0.3696	1.4795	-34.0576	2.1698	6.2567	26.8400 
592.472	0.4360	-0.0708	1.4595	-44.2914	5.8063	6.7731	26.8300 
592.489	0.8511	0.1309	4.3252	-51.4160	10.3381	4.9274	26.8300 
592.509	1.1597	0.4434	2.1924	-51.3831	11.4807	5.0867	26.8200 
592.531	0.7764	0.2061	0.4390	-48.0377	10.9094	5.3448	26.8300 
592.571	0.5142	0.1646	0.4663	-43.8794	9.9976	4.4220	26.8300 
592.572	0.3154	0.1636	1.0830	-39.9738	8.9813	3.2904	26.8100 
592.588	0.2349	0.1108	1.3057	-35.6946	7.6575	2.4060	26.8200 
592.608	-0.0820	-0.0171	0.9219	-30.3552	6.1469	1.6479	26.8300 
592.628	-0.2666	-0.1001	0.7852	-24.8071	4.7241	1.0986	26.8200 
592.648	-0.3633	-0.1709	1.1089	-19.7314	3.3179	1.0272	26.8200 
592.668	-0.3682	-0.2417	1.3369	-14.9249	1.8677	1.4337	26.8100 
592.687	-0.3105	-0.3643	1.3696	-10.0415	0.3955	2.0654	26.8100 
592.708	-0.2529	-0.4053	1.3271	-5.2020	-1.0327	2.7026	26.7900 
592.758	-0.1470	-0.4199	1.4360	-0.6372	-2.4774	3.2794	26.8000 
592.761	-0.0884	-0.4604	1.5352	3.6200	-4.0100	3.7793	26.8000 
592.767	0.0928	-0.5894	1.8042	7.6575	-5.6140	4.1968	26.8000 
592.787	0.2739	-0.6445	1.8989	11.7224	-7.1521	4.4220	26.7800 
592.808	0.3862	-0.7920	1.6392	15.8313	-8.5199	4.2682	26.7800 
592.827	0.3345	-0.8877	1.3833	19.8688	-9.8822	3.6639	26.7800 
592.847	-0.0229	-0.9795	1.0747	23.7195	-11.3159	2.3840	26.7800 
592.868	-0.2871	-1.1221	0.9614	27.2626	-12.1399	0.0714	26.7900 
592.887	-0.9121	-1.4668	0.7769	30.0256	-11.1017	-3.4442	26.7700 
592.907	-1.0107	-1.6738	0.4370	31.9537	-10.1129	-5.9326	26.7600 
592.929	-0.4482	-1.5767	0.2051	32.4976	-9.1846	-6.9434	26.7700 
592.947	-0.5679	-1.5005	0.2871	31.1737	-7.1576	-6.7181	26.7600 
592.999	0.1113	0.1396	0.8442	27.8943	-4.6198	-5.0098	26.7600 
593.001	1.0112	0.1621	0.9736	24.4556	-3.2794	-2.4280	26.7700 
593.006	-0.6304	-0.1216	1.6899	20.4840	-2.0984	-0.9009	26.7300 
593.026	-0.3267	0.0405	1.9824	16.5839	-1.1865	-0.7745	26.7300 
593.046	-0.0010	-0.3379	1.8320	12.6013	-1.3843	-0.0110	26.7800 
593.066	-0.0498	0.0347	1.3745	9.3439	-2.1698	0.0000	26.8100 
593.086	0.0659	-0.0259	1.2036	7.0532	-3.1256	0.1318	26.8000 
593.106	0.0889	-0.0757	1.1440	5.8722	-3.6090	0.2856	26.8100 
593.127	0.1274	-0.0605	1.0635	5.2679	-3.9276	0.4340	26.8100 
593.146	0.1074	-0.0776	1.0732	4.7131	-4.2242	0.4999	26.8100 
593.185	0.1177	-0.0566	1.0610	4.2407	-4.6362	0.5109	26.8200 
593.187	0.1587	-0.0659	1.0352	3.8123	-5.1361	0.5713	26.8200 
593.205	0.1943	-0.0630	0.9971	3.3179	-5.7129	0.7196	26.8000 
593.225	0.2056	-0.0679	0.9683	2.8070	-6.3116	0.9283	26.8300 
593.245	0.2363	-0.0913	0.9741	2.4060	-6.8774	1.2195	26.8200 
593.265	0.2134	-0.0820	0.9858	2.0819	-7.1851	1.5436	26.8200 
593.285	0.2163	-0.1016	1.0054	1.7139	-7.3334	1.8842	26.8200 
593.305	0.1812	-0.1035	1.0239	1.2030	-7.3663	2.2137	26.8200 
593.325	0.1802	-0.1240	1.0166	0.5713	-7.3004	2.5159	26.8100 
593.375	0.1841	-0.1226	1.0029	-0.0220	-7.1082	2.7795	26.8100 
593.378	0.1899	-0.1377	0.9878	-0.6921	-6.8170	3.0432	26.8100 
593.384	0.2041	-0.1548	1.0029	-1.2854	-6.6138	3.3453	26.8100 
593.411	0.1870	-0.1396	0.9927	-1.7303	-6.4325	3.6694	26.8300 
593.424	0.1738	-0.1450	0.9902	-2.1149	-6.1304	4.0210	26.8100 
593.444	0.1631	-0.1421	0.9927	-2.5433	-5.7239	4.3671	26.8200 
593.464	0.1445	-0.1650	1.0049	-3.3618	-5.3284	4.7021	26.8100 
593.484	0.1494	-0.2100	1.0098	-4.5099	-4.9438	5.0482	26.8100 
593.504	0.1025	-0.2354	1.0474	-5.5316	-4.3396	5.3064	26.8300 
593.524	0.1016	-0.2363	1.0288	-6.3556	-3.7573	5.4547	26.8300 
593.544	0.1006	-0.2417	1.0049	-7.1466	-3.3508	5.5536	26.8100 
593.563	0.1050	-0.2441	1.0244	-7.7179	-3.0157	5.5701	26.8100 
593.612	0.1016	-0.2495	1.0679	-8.2507	-2.6752	5.5426	26.8100 
593.614	0.0850	-0.2529	1.0386	-9.4318	-2.3511	5.5646	26.8100 
593.623	0.0859	-0.2090	1.0396	-10.8875	-2.0160	5.5811	26.8200 
593.643	0.0923	-0.1357	1.0566	-12.5409	-1.6974	5.6580	26.8200 
593.663	0.1021	0.1782	1.2656	-14.8206	-1.2140	6.0095	26.8400 
593.683	-0.0054	0.0864	1.6831	-19.1052	-0.3790	6.5259	26.8300 
593.703	0.2637	0.0215	1.8110	-27.8119	0.1923	7.2070	26.8400 
593.723	0.8442	0.0566	1.5376	-39.3311	-0.5273	9.1956	26.8300 
593.742	0.5015	-0.8545	4.8682	-48.7848	0.4944	10.8325	26.8100 
593.763	0.8408	0.6851	2.9761	-51.0425	2.7411	10.8875	26.8300 
593.802	0.7188	0.2974	0.3301	-48.4772	4.0814	11.0687	26.8100 
593.804	0.7139	0.1616	0.3325	-44.7748	5.2295	10.5139	26.8100 
593.823	0.7617	0.1885	1.0239	-41.0120	6.2842	9.4482	26.8000 
593.842	0.6875	0.0703	1.2085	-37.1942	6.5588	8.4375	26.8100 
593.862	0.4600	-0.1602	0.9775	-32.4756	5.7294	7.6135	26.7900 
593.882	0.2319	-0.2656	0.8984	-27.2021	4.2627	6.6742	26.7800 
593.902	-0.0635	-0.4341	1.0801	-21.9946	2.6422	5.6580	26.7900 
593.922	-0.1685	-0.5439	1.1064	-16.8475	1.0327	4.8230	26.7900 
593.944	-0.1001	-0.6357	1.1899	-11.7993	-0.4395	4.3286	26.7900 
593.988	-0.0303	-0.6655	1.3105	-7.0917	-1.7798	4.0649	26.8000 
593.992	-0.0059	-0.6396	1.3643	-2.5049	-3.0707	3.8013	26.7800 
594.002	-0.0908	-0.5977	1.3193	1.9391	-4.3011	3.4167	26.7800 
594.021	-0.1533	-0.5586	1.3384	6.0535	-5.5591	3.0652	26.7700 
594.041	-0.1152	-0.5640	1.4448	9.8328	-6.9049	2.8510	26.7800 
594.061	-0.0620	-0.5415	1.6406	13.4308	-8.1738	2.8455	26.7800 
594.081	0.0278	-0.5728	1.5835	17.0123	-9.2780	2.9553	26.7700 
594.101	0.1729	-0.7246	1.3540	20.5719	-10.4315	3.3838	26.7700 
594.121	0.2437	-0.8242	1.1333	24.1150	-11.6016	4.0375	26.7600 
594.175	0.2749	-0.9819	0.8511	27.3340	-12.6892	4.2847	26.7500 
594.179	0.1519	-1.1626	0.8306	30.0696	-13.6285	3.9661	26.7600 
594.184	-0.4692	-1.5811	0.4849	32.2998	-13.8702	2.7081	26.7600 
594.201	-0.6157	-1.7319	0.2017	33.8159	-12.6068	0.4120	26.7700 
594.220	-0.2368	-1.5889	-0.0503	33.2391	-12.3376	-0.0989	26.7700 
594.240	0.4751	-0.1235	0.8164	30.3223	-11.7883	1.4008	26.7500 
594.260	0.2661	0.3511	0.3027	27.0813	-9.8163	2.4994	26.7400 
594.280	-0.8091	-0.2456	1.9414	22.3737	-7.2894	3.0597	26.7300 
594.300	-0.3408	-0.0679	1.8794	18.2318	-5.9546	3.1036	26.7200 
594.320	1.1001	-0.0576	2.1333	14.1119	-6.0754	3.8947	26.7700 
594.343	0.0010	-0.2549	1.7476	10.3436	-6.1523	4.2682	26.7800 
594.360	0.1743	-0.0679	1.3916	7.3114	-7.1466	3.9496	26.7800 
594.425	0.0293	-0.0503	1.2324	5.9601	-7.5037	3.7958	26.8000 
594.428	0.1060	-0.0430	1.0664	5.1086	-7.7124	3.8232	26.8000 
594.428	0.1157	-0.0576	1.0615	4.3231	-7.9706	3.8892	26.8000 
594.440	0.1284	-0.0610	1.0420	3.8452	-8.1848	3.9496	26.7900 
594.459	0.1558	-0.0693	1.0381	3.5211	-8.3441	4.0210	26.8100 
594.479	0.1670	-0.0747	1.0181	3.0597	-8.5089	4.1364	26.7900 
594.499	0.1660	-0.0903	1.0249	2.5433	-8.6792	4.3011	26.7900 
594.519	0.1465	-0.0864	1.0210	1.9940	-8.7506	4.4550	26.8000 
594.540	0.1406	-0.0845	1.0137	1.3898	-8.8330	4.5923	26.7900 
594.559	0.1553	-0.0977	1.0015	0.8020	-8.9374	4.7681	26.7900 
594.579	0.1631	-0.0996	0.9941	0.1868	-9.0417	4.9713	26.8000 
594.615	0.1660	-0.1118	1.0044	-0.4834	-9.0912	5.2240	26.8000 
594.618	0.1577	-0.1279	1.0078	-1.1591	-8.9923	5.5261	26.7900 
594.638	0.1455	-0.1465	1.0103	-1.8677	-8.7891	5.8392	26.8000 
594.658	0.1396	-0.1392	1.0073	-2.6093	-8.5309	6.1249	26.8000 
594.678	0.1265	-0.1484	1.0068	-3.3728	-8.1573	6.3831	26.7900 
594.698	0.1323	-0.1665	1.0010	-4.3231	-7.7234	6.6193	26.7900 
594.718	0.1182	-0.2202	1.0171	-5.5206	-7.2400	6.8665	26.8100 
594.738	0.1226	-0.2373	1.0293	-6.7291	-6.6522	7.0642	26.8000 
594.758	0.0835	-0.2500	1.0439	-7.7289	-5.9601	7.1521	26.8000 
594.807	0.0791	-0.2202	1.0684	-8.4924	-5.3229	7.1686	26.8200 
594.810	0.0981	-0.1641	1.1133	-9.5471	-4.8450	7.1741	26.8100 
594.818	0.0918	-0.1143	1.0972	-11.3654	-4.4934	7.3608	26.8000 
594.837	0.1802	0.1631	1.3579	-14.7382	-4.2572	7.9376	26.8100 
594.859	0.0674	0.4380	1.8667	-20.5719	-4.3451	9.2560	26.8200 
594.877	0.5781	-0.0981	1.7603	-30.1630	-5.0702	12.1674	26.7900 
594.897	0.8486	-0.4287	3.3042	-37.1942	-3.8562	14.6393	26.7800 
594.917	0.8589	0.6084	1.6616	-38.2544	-2.0380	15.5621	26.8000 
594.937	0.7861	0.4941	1.0156	-37.2821	-0.8350	15.8917	26.7900 
594.957	0.4951	0.3579	0.6777	-35.0189	-0.1483	15.5457	26.8000 
594.998	0.3823	0.2720	0.6196	-32.2119	-0.2087	15.0128	26.7900 
595.000	0.2173	0.1807	0.8950	-28.8281	-0.7471	14.3701	26.7800 
595.016	0.0801	0.1177	1.0137	-25.0214	-1.4502	13.6176	26.7900 
595.037	-0.0845	-0.0210	1.0459	-20.8685	-2.2797	12.9419	26.7800 
595.057	-0.1680	-0.1226	1.0767	-16.4246	-3.1805	12.4146	26.7800 
595.076	-0.2593	-0.2173	1.1650	-11.7719	-4.0485	12.0575	26.7700 
595.096	-0.2559	-0.2534	1.2212	-7.1796	-4.8779	11.9366	26.7800 
595.118	-0.1182	-0.3140	1.2891	-2.8619	-5.7513	12.0245	26.7500 
595.136	0.0239	-0.3252	1.3940	1.2524	-6.6907	12.1893	26.7500 
595.157	0.1650	-0.3662	1.6753	5.3119	-7.6520	12.2388	26.7500 
595.176	0.1875	-0.3999	1.7466	9.4537	-8.5474	12.0300	26.7600 
595.196	0.2695	-0.5098	1.6118	13.5901	-9.3878	11.6400	26.7500 
595.236	0.3164	-0.6108	1.4482	17.5287	-10.2777	11.1237	26.7600 
595.238	0.2720	-0.7979	1.1938	21.1047	-11.3159	10.4425	26.7600 
595.256	0.1338	-0.9766	1.0913	24.4556	-12.2607	9.5856	26.7500 
595.276	-0.2695	-1.3101	0.8647	27.4713	-12.3486	8.0035	26.7600 
595.296	-0.6279	-1.6567	0.6206	29.9542	-10.9753	5.0977	26.7500 
595.315	-0.7661	-2.4692	-0.1602	30.9760	-9.7284	3.3179	26.7500 
595.336	-0.7627	-2.0610	-0.1499	29.5477	-7.6849	3.1696	26.7300 
595.356	0.3750	0.4951	1.3262	26.4221	-5.6085	4.3726	26.7200 
595.375	0.8540	0.0396	0.8032	23.0768	-4.5593	6.2622	26.7200 
595.422	-0.9160	-0.0151	1.7661	19.4678	-3.5321	6.9104	26.7200 
595.424	0.3735	0.3452	2.0796	15.9412	-3.2739	6.9763	26.7200 
595.434	-0.2500	-0.1309	1.6851	12.2388	-3.9880	7.5311	26.7600 
595.455	0.1597	-0.0044	1.1660	9.5746	-5.0977	7.1686	26.7700 
595.474	0.1211	-0.0112	1.1147	8.0255	-5.8942	6.9873	26.7800 
595.495	0.1021	-0.0601	1.1177	7.1851	-6.1249	6.9104	26.7800 
595.515	0.1074	-0.0654	1.0884	6.5204	-6.2292	6.8884	26.7700 
595.534	0.1240	-0.0527	1.0317	6.0040	-6.3281	6.8445	26.7900 
595.554	0.1279	-0.0469	1.0142	5.6580	-6.4050	6.8005	26.7700 
595.574	0.1514	-0.0444	0.9956	5.3943	-6.4764	6.7566	26.7700 
595.611	0.1465	-0.0537	1.0044	5.1416	-6.5643	6.7401	26.7800 
595.614	0.1514	-0.0591	1.0044	4.8395	-6.6962	6.7346	26.7900 
595.634	0.1567	-0.0562	1.0039	4.4385	-6.8994	6.7621	26.7800 
595.654	0.1543	-0.0996	1.0420	3.9880	-7.1082	6.8335	26.7800 
595.674	0.1450	-0.0781	1.0244	3.5980	-7.1466	6.8994	26.7800 
595.694	0.1475	-0.0801	1.0112	3.1256	-7.1411	6.9598	26.7800 
595.713	0.1470	-0.0771	1.0103	2.5488	-7.0917	7.0477	26.7800 
595.734	0.1504	-0.1001	1.0132	1.8457	-7.0038	7.1906	26.7700 
595.753	0.1460	-0.1279	1.0254	1.0876	-6.9159	7.4103	26.7800 
595.800	0.1372	-0.1177	1.0029	0.3351	-6.7291	7.6465	26.7700 
595.807	0.1260	-0.1216	0.9990	-0.4395	-6.4545	7.8662	26.7800 
595.815	0.1216	-0.1396	0.9995	-1.3184	-6.0974	8.0530	26.7800 
595.833	0.1118	-0.1753	1.0137	-2.3071	-5.6744	8.2068	26.7700 
595.853	0.1006	-0.2046	1.0303	-3.3453	-5.1855	8.2892	26.7900 
595.872	0.1030	-0.2173	1.0317	-4.3011	-4.6362	8.2507	26.8000 
595.892	0.1074	-0.2109	1.0342	-5.0482	-4.0210	8.1189	26.7800 
595.912	0.0991	-0.2393	1.0459	-5.7184	-3.4387	7.9596	26.7800 
595.932	0.0845	-0.1982	1.0537	-6.4545	-2.9279	7.8497	26.7900 
595.952	0.0879	-0.1880	1.0581	-7.4542	-2.5269	7.8003	26.8000 
595.974	0.0679	-0.0444	1.0698	-8.9209	-2.2852	7.9541	26.7900 
595.992	0.1162	-0.0093	1.1416	-11.3654	-2.2247	8.4979	26.7900 
596.060	0.1362	0.3843	1.9365	-16.4740	-2.2302	9.6625	26.8000 
596.083	0.5269	0.0029	1.6465	-24.8566	-2.1423	11.3269	26.7900 
596.083	0.5273	0.0981	1.9097	-35.2606	-0.1813	12.6288	26.8000 
596.089	0.1865	-0.6348	3.5684	-42.4622	3.7958	12.0685	26.7800 
596.092	0.8911	0.4922	1.6177	-43.1213	5.4108	13.0298	26.7700 
596.111	0.9312	0.3369	0.6890	-41.2811	5.5811	14.3866	26.7900 
596.131	0.7129	0.2256	0.7158	-38.3643	5.3009	14.5074	26.7800 
596.151	0.5093	0.2251	0.9424	-35.2332	4.7626	13.5901	26.7500 
596.174	0.1987	0.1211	1.0532	-31.6626	3.8068	12.3706	26.7700 
596.191	0.0269	0.0371	1.0059	-27.1857	2.6587	11.2006	26.7600 
596.210	-0.1396	-0.1035	0.9458	-22.2968	1.4832	10.3107	26.7500 
596.254	-0.2007	-0.1953	1.0049	-17.3584	0.3021	9.7778	26.7500 
596.256	-0.2314	-0.2725	1.1953	-12.4200	-0.9229	9.5801	26.7400 
596.271	-0.2480	-0.3062	1.3257	-7.6025	-2.2192	9.5581	26.7500 
596.291	-0.2446	-0.3677	1.4360	-2.8400	-3.5156	9.6130	26.7700 
596.310	-0.1680	-0.4106	1.4624	1.8457	-4.7681	9.7723	26.7400 
596.331	0.0298	-0.5029	1.5996	6.3885	-5.9711	10.0085	26.7400 
596.350	0.1392	-0.5605	1.6499	10.6897	-7.1301	10.1953	26.7400 
596.372	0.2593	-0.6611	1.6729	14.7272	-8.3881	10.1788	26.7400 
596.390	0.3730	-0.7324	1.6030	18.6328	-9.7943	9.7339	26.7300 
596.443	0.3330	-0.9189	1.2588	22.4121	-10.9753	8.8495	26.7400 
596.445	0.0244	-1.0679	0.9873	26.0046	-11.9696	7.6904	26.7500 
596.450	-0.3589	-1.4155	0.7114	29.0369	-12.6508	5.7074	26.7300 
596.470	-0.6733	-1.7788	0.6650	31.3440	-11.9531	2.4500	26.7300 
596.490	-0.6621	-1.5156	-0.3354	32.3273	-11.2994	0.2802	26.7300 
596.510	-0.5088	-1.8691	-0.0532	30.9375	-9.6680	-0.2087	26.7200 
596.530	0.3809	0.3525	1.1855	27.6031	-7.3499	0.9503	26.7200 
596.550	0.5146	0.2842	0.2061	24.4226	-5.6909	2.4170	26.7100 
596.569	-1.3511	-0.0098	1.7578	20.1379	-3.9276	2.8894	26.7200 
596.589	0.7705	-0.1279	2.9106	15.6775	-3.3783	3.3124	26.7200 
596.635	-0.3696	-0.0864	2.0166	11.0028	-4.3121	3.8562	26.7500 
596.637	0.2891	-0.1069	1.1514	8.7891	-5.1251	3.6200	26.7600 
596.649	0.2070	-0.0767	1.0469	7.7124	-5.2789	3.5321	26.7600 
596.669	0.1313	-0.0791	1.0693	7.0038	-5.3229	3.5925	26.7700 
596.689	0.1069	-0.0972	1.0952	6.3501	-5.3558	3.6859	26.7700 
596.709	0.1270	-0.0820	1.0303	5.8008	-5.2954	3.7189	26.7700 
596.729	0.1201	-0.0776	1.0425	5.4822	-5.2240	3.7244	26.7700 
596.748	0.1460	-0.0806	1.0283	5.2185	-5.2460	3.7189	26.7800 
596.768	0.1416	-0.0801	1.0073	4.9493	-5.3503	3.7573	26.7600 
596.822	0.1450	-0.0742	0.9985	4.6857	-5.4767	3.8177	26.7600 
596.824	0.1650	-0.0933	1.0098	4.3835	-5.6799	3.9221	26.7800 
596.828	0.1553	-0.0864	1.0083	4.0430	-5.8228	4.0649	26.7600 
596.848	0.1436	-0.0894	1.0151	3.6639	-5.8447	4.2352	26.7800 
596.867	0.1431	-0.0894	1.0039	3.1421	-5.7788	4.4220	26.7600 
596.888	0.1323	-0.0811	1.0083	2.5159	-5.6744	4.6198	26.7600 
596.908	0.1216	-0.1177	1.0195	1.8127	-5.5316	4.8779	26.7700 
596.927	0.1235	-0.1387	1.0220	0.9943	-5.3229	5.2130	26.7600 
596.947	0.1128	-0.1333	1.0137	0.1538	-5.0098	5.5426	26.7600 
596.967	0.0957	-0.1421	1.0112	-0.7471	-4.6198	5.8228	26.7500 
596.991	0.0874	-0.1787	1.0137	-1.6974	-4.1144	6.0205	26.7500 
597.008	0.0928	-0.1978	1.0181	-2.6312	-3.5211	6.1414	26.7500 
597.062	0.0913	-0.2227	1.0376	-3.7134	-2.8729	6.2018	26.7800 
597.065	0.0728	-0.2417	1.0225	-4.7900	-2.2412	6.1633	26.7700 
597.067	0.0801	-0.2422	1.0322	-5.5261	-1.6150	6.0370	26.7800 
597.087	0.0654	-0.2588	1.0420	-6.1908	-1.0492	5.8832	26.7800 
597.107	0.0527	-0.2466	1.0244	-7.0477	-0.6317	5.7953	26.7800 
597.127	0.0615	-0.2236	1.0425	-8.1409	-0.3735	5.8392	26.7800 
597.146	0.0859	-0.1479	1.0757	-10.0635	-0.3625	6.2457	26.7800 
597.167	0.0786	-0.0874	1.1309	-13.2495	-0.2747	7.0587	26.7800 
597.187	0.0552	0.0928	1.7944	-18.2758	-0.0549	8.3606	26.7800 
597.206	0.4917	-0.0913	1.7446	-25.8124	0.2637	9.9811	26.7800 
597.251	0.4707	0.3813	2.4941	-35.1563	2.6752	10.9753	26.7800 
597.254	0.0737	-0.1499	3.7617	-40.3912	6.5259	10.1898	26.7700 
597.266	0.9170	0.5073	1.0381	-39.7980	7.6740	11.2115	26.7800 
597.286	0.9019	0.3174	0.5923	-37.6941	7.9376	12.0959	26.7700 
597.306	0.5757	0.2451	0.8057	-34.8541	7.8497	11.9366	26.7700 
597.326	0.4019	0.1899	1.0264	-31.6241	7.1631	11.4642	26.7600 
597.346	0.1362	0.0483	1.0459	-28.1854	5.9491	11.0303	26.7700 
597.366	-0.0693	-0.0366	1.0288	-24.1260	4.6307	10.6183	26.7500 
597.386	-0.2773	-0.1338	1.0020	-19.5886	3.3618	10.4041	26.7500 
597.440	-0.3091	-0.1807	1.0483	-14.9963	2.1423	10.5304	26.7500 
597.444	-0.2720	-0.2480	1.1846	-10.7117	0.9668	10.9424	26.7400 
597.445	-0.2671	-0.2588	1.2856	-6.5533	-0.1593	11.4697	26.7400 
597.464	-0.2607	-0.3071	1.3960	-2.3566	-1.3184	12.0740	26.7400 
597.484	-0.1807	-0.3584	1.3804	1.7633	-2.5708	12.8265	26.7300 
597.504	0.0425	-0.4180	1.3589	5.6964	-3.9990	13.6780	26.7400 
597.528	0.1611	-0.4316	1.3926	9.4098	-5.5920	14.3866	26.7200 
597.544	0.2798	-0.3906	1.4019	12.9034	-7.3059	14.6283	26.7500 
597.564	0.3369	-0.3799	1.3994	16.1389	-9.0198	14.2108	26.7500 
597.584	0.3862	-0.4580	1.5820	19.1492	-10.5414	13.0573	26.7400 
597.653	0.3110	-0.5645	1.6831	22.1814	-11.5851	11.2335	26.7300 
597.656	-0.1328	-0.6592	1.2148	25.6476	-11.7993	8.4979	26.7300 
597.656	-0.3550	-0.7588	0.9678	29.3829	-11.0632	4.4495	26.7200 
597.664	-0.7163	-1.0693	0.8228	32.2778	-10.1349	1.0876	26.7200 
597.684	-0.9097	-1.4580	0.6714	34.4037	-9.3768	-1.3733	26.7200 
597.704	-0.6187	-1.5977	-0.1372	35.3870	-8.8275	-2.4774	26.7300 
597.724	-0.6221	-1.8325	0.0986	34.1895	-6.9434	-1.9171	26.7000 
597.746	0.4395	0.3345	0.7690	31.1243	-4.1528	0.2087	26.7000 
597.764	1.0044	0.1533	0.7603	27.5702	-2.6917	2.7136	26.7000 
597.783	-1.1719	-0.1138	2.0830	23.2690	-1.1426	3.6639	26.6800 
597.803	0.2456	-0.1611	1.9785	19.2261	-0.4120	3.8123	26.6800 
597.845	-0.0444	-0.3926	1.8408	15.6720	-0.4175	4.4110	26.7300 
597.848	-0.1133	-0.0874	1.4692	12.3047	-0.3571	3.6145	26.7400 
597.863	0.0532	-0.0483	1.2739	9.2834	-0.9723	3.5266	26.7600 
597.883	0.0439	-0.0547	1.1284	7.7563	-1.2579	3.4717	26.7500 
597.903	0.0752	-0.1001	1.0981	6.6632	-1.3678	3.4277	26.7500 
597.923	0.0869	-0.1108	1.0718	5.9106	-1.4722	3.4167	26.7400 
597.943	0.1104	-0.0986	1.0508	5.4053	-1.5875	3.4167	26.7600 
597.964	0.1357	-0.1240	1.0591	4.8779	-1.7084	3.4882	26.7500 
597.983	0.1338	-0.1211	1.0342	4.4824	-1.8896	3.6255	26.7500 
598.041	0.1206	-0.1084	1.0200	4.1418	-2.0490	3.7518	26.7500 
598.048	0.1250	-0.1069	1.0068	3.8177	-2.1973	3.8837	26.7500 
598.048	0.1167	-0.1084	1.0063	3.4991	-2.3181	4.0320	26.7600 
598.062	0.1094	-0.1138	1.0112	3.1531	-2.3840	4.1748	26.7600 
598.082	0.1211	-0.1201	1.0107	2.8125	-2.4170	4.3176	26.7500 
598.102	0.1274	-0.1138	1.0103	2.4500	-2.4225	4.4879	26.7700 
598.122	0.1216	-0.1230	1.0137	2.0270	-2.3785	4.6747	26.7400 
598.142	0.1152	-0.1270	1.0088	1.5820	-2.2852	4.8999	26.7500 
598.162	0.1284	-0.1323	1.0107	1.1261	-2.1204	5.1910	26.7700 
598.182	0.0996	-0.1416	1.0088	0.5988	-1.8842	5.5206	26.7600 
598.202	0.0796	-0.1353	1.0054	0.0330	-1.5930	5.7953	26.7600 
598.221	0.0698	-0.1460	1.0093	-0.5768	-1.2744	5.9821	26.7600 
598.241	0.0679	-0.1685	1.0254	-1.3239	-0.9283	6.0754	26.7600 
598.280	0.0767	-0.1797	1.0244	-2.2742	-0.5658	6.1359	26.7700 
598.282	0.0718	-0.2144	1.0220	-3.4827	-0.1538	6.1743	26.7700 
598.301	0.0571	-0.2310	1.0137	-4.6857	0.3406	6.1469	26.7800 
598.321	0.0405	-0.2642	1.0195	-5.6195	0.9229	5.9436	26.7600 
598.341	0.0391	-0.2715	1.0151	-6.3831	1.4612	5.6635	26.7600 
598.361	0.0381	-0.2598	1.0181	-7.1851	1.8842	5.4108	26.7600 
598.381	0.0420	-0.2397	1.0337	-8.1683	2.1368	5.2679	26.7700 
598.400	0.1084	-0.2090	1.0659	-9.8492	2.1753	5.3943	26.7900 
598.422	0.1011	-0.1060	1.1138	-12.1344	2.2247	5.7458	26.7800 
598.473	0.1470	0.1343	1.5361	-15.2216	2.6532	6.3446	26.7800 
598.475	0.3301	0.1108	1.7910	-20.5170	3.2739	7.2180	26.7800 
598.480	0.4463	-0.1729	1.6636	-29.0698	5.2570	8.2068	26.7700 
598.500	-0.4883	0.7241	3.1172	-36.4471	9.9371	7.5696	26.7400 
598.520	0.8257	0.5835	2.1431	-38.8586	13.3044	8.3881	26.7500 
598.540	1.4219	0.3809	0.9482	-37.2766	14.2767	11.2445	26.7600 
598.560	1.0171	0.3096	0.7070	-34.9200	14.4141	12.3651	26.7700 
598.579	0.5996	0.3091	0.8882	-32.1790	13.4418	12.2607	26.7600 
598.600	0.1914	0.2466	1.2729	-28.8446	11.6125	11.7883	26.7400 
598.620	-0.0991	0.1685	1.1797	-25.0104	9.6021	11.0577	26.7300 
598.661	-0.3677	0.0503	1.0825	-20.6049	7.8058	10.2557	26.7500 
598.662	-0.4370	-0.0205	1.1650	-15.9576	6.2677	9.6515	26.7400 
598.680	-0.4707	-0.1221	1.2285	-11.3104	4.9878	9.3274	26.7500 
598.701	-0.4199	-0.1758	1.2935	-6.7456	3.8672	9.3219	26.7300 
598.720	-0.2871	-0.2422	1.3359	-2.2247	2.8290	9.5526	26.7300 
598.739	-0.1846	-0.2671	1.3672	2.1698	1.7303	9.9207	26.7200 
598.759	-0.0776	-0.3218	1.5493	6.3501	0.4175	10.2832	26.7100 
598.779	-0.0498	-0.3809	1.6704	10.3601	-0.9888	10.5029	26.7200 
598.799	0.0586	-0.4321	1.7451	14.3152	-2.4005	10.5963	26.7200 
598.846	0.1543	-0.5210	1.6919	18.2593	-3.8123	10.6128	26.7200 
598.850	0.2427	-0.6680	1.3794	22.0935	-5.4382	10.4645	26.7200 
598.859	0.2637	-0.7490	1.1597	25.6366	-7.2729	10.0525	26.7200 
598.878	0.0688	-0.7920	1.1401	28.7183	-9.1901	9.0088	26.7400 
598.899	-0.1064	-0.9028	1.2031	31.5472	-10.7941	7.4103	26.7100 
598.918	-0.6450	-1.1621	0.8477	34.3762	-9.9481	3.7134	26.7000 
598.938	-0.8545	-1.3970	0.6602	36.4856	-8.9264	0.8899	26.6900 
598.958	-0.4336	-1.3584	0.3193	37.4799	-8.4045	-0.5328	26.7100 
598.978	-0.0493	-1.1357	0.6040	37.2272	-8.2617	-0.6757	26.7100 
598.997	0.0996	-0.9302	0.5625	35.2936	-8.6407	1.3019	26.6900 
599.021	0.3687	0.4106	0.6626	32.3218	-7.7234	3.6804	26.7000 
599.037	-0.3198	0.1777	0.9644	28.9050	-6.2347	4.7845	26.6900 
599.086	-1.0254	-0.0049	1.5376	24.7137	-4.5923	4.9164	26.6600 
599.087	0.7373	-0.1997	1.8662	20.1929	-4.6527	5.4108	26.6700 
599.097	0.8018	-1.2476	2.4609	15.5621	-4.9823	6.5259	26.7100 
599.117	-0.3608	-0.1509	1.7891	11.5027	-4.9988	6.2842	26.7200 
599.137	-0.0127	-0.0806	1.3843	8.7012	-5.6360	6.2952	26.7300 
599.157	0.0952	-0.0825	1.1934	7.6904	-5.8777	6.3391	26.7300 
599.177	0.1147	-0.0835	1.1108	7.1741	-5.9656	6.4050	26.7400 
599.197	0.1182	-0.0503	1.0405	7.0422	-6.0150	6.4380	26.7500 
599.217	0.1392	-0.0317	0.9902	6.9324	-6.1249	6.4545	26.7500 
599.236	0.1362	-0.0322	1.0024	6.7896	-6.2567	6.4545	26.7500 
599.285	0.1689	-0.0498	1.0010	6.6357	-6.4380	6.5039	26.7600 
599.287	0.1895	-0.0674	1.0073	6.3556	-6.6028	6.6302	26.7500 
599.296	0.1680	-0.0488	0.9785	6.0315	-6.7621	6.7786	26.7400 
599.316	0.1689	-0.0610	0.9951	5.7349	-6.9598	6.9489	26.7500 
599.336	0.1689	-0.0630	1.0073	5.4327	-7.0862	7.1301	26.7400 
599.355	0.1699	-0.0659	1.0029	5.0537	-7.1686	7.3334	26.7400 
599.376	0.1890	-0.1045	1.0293	4.5154	-7.2290	7.5586	26.7400 
599.396	0.1709	-0.0859	1.0166	3.9716	-7.2015	7.8113	26.7300 
599.417	0.1367	-0.1030	1.0400	3.4552	-7.1027	8.0695	26.7500 
599.435	0.1455	-0.1050	1.0317	3.0048	-6.9873	8.3057	26.7500 
599.471	0.1528	-0.1069	1.0190	2.6038	-6.9159	8.5529	26.7600 
599.475	0.1558	-0.1050	0.9980	2.1863	-6.8390	8.8330	26.7600 
599.496	0.1479	-0.0864	0.9746	1.7468	-6.6742	9.1187	26.7500 
599.515	0.1401	-0.1250	1.0024	1.2250	-6.4050	9.4263	26.7700 
599.535	0.1348	-0.1201	1.0020	0.6152	-5.9711	9.7064	26.7500 
599.555	0.1226	-0.1270	1.0068	-0.1208	-5.4492	9.9536	26.7500 
599.575	0.1152	-0.1558	1.0166	-1.0162	-4.8834	10.1459	26.7500 
599.595	0.1069	-0.1768	1.0225	-2.0105	-4.3286	10.2832	26.7800 
599.615	0.1016	-0.2207	1.0303	-3.0212	-3.8507	10.3546	26.7500 
599.657	0.1021	-0.2041	1.0488	-3.7518	-3.4277	10.4041	26.7500 
599.661	0.0854	-0.2070	1.0610	-4.4550	-3.0542	10.4535	26.7500 
599.674	0.0708	-0.2217	1.0742	-5.4547	-2.7356	10.5084	26.7500 
599.694	0.0894	-0.1411	1.0288	-6.9598	-2.4939	10.6348	26.7500 
599.714	0.0664	-0.0859	1.0356	-8.9978	-2.3016	10.8600	26.7600 
599.734	0.0781	0.2178	1.2847	-11.7609	-2.1478	11.3983	26.7700 
599.754	0.0264	0.3179	1.7915	-17.0618	-1.7688	12.2498	26.7500 
599.774	0.4414	0.0200	1.9434	-26.1584	-1.4996	13.1671	26.7600 
599.794	0.5527	0.3433	1.7124	-36.4471	-0.2856	13.4967	26.7600 
599.814	0.0884	0.6362	3.8115	-42.5885	1.5930	13.7714	26.7600 
599.834	0.5874	0.6895	1.7930	-43.0609	3.1915	15.1227	26.7500 
599.853	0.8950	0.3560	0.6323	-40.7373	4.1968	16.5179	26.7500 
599.895	0.8643	0.2754	0.7432	-37.3151	5.0702	16.5454	26.7500 
599.897	0.5513	0.2578	1.0576	-33.5083	5.4492	15.6940	26.7100 
599.913	0.3716	0.1611	1.1934	-29.4818	4.8505	14.8096	26.7300 
599.933	0.0645	-0.0503	1.0483	-24.6973	3.5760	14.0021	26.7300 
599.953	-0.1499	-0.1665	0.9951	-19.2535	2.3346	13.1451	26.7300 
599.973	-0.3032	-0.3237	1.1431	-13.9307	1.2305	12.5519	26.7300 
599.993	-0.2100	-0.4097	1.2017	-8.8165	0.0659	12.3926	26.7100 
600.013	-0.0674	-0.4902	1.3032	-3.8727	-1.0437	12.4915	26.7100 
600.033	-0.1582	-0.4653	1.3706	0.9064	-1.9446	12.3981	26.7000 
600.083	-0.2085	-0.4971	1.4175	5.4657	-2.9608	12.1948	26.7100 
600.085	-0.1611	-0.5503	1.5176	9.8273	-4.2023	12.1124	26.7100 
600.092	-0.0332	-0.6621	1.8076	13.9032	-5.5701	12.2717	26.7000 
600.112	0.1191	-0.7012	1.7876	17.9681	-6.9873	12.5354	26.7100 
600.132	0.2959	-0.8521	1.3994	22.1704	-8.2892	12.6453	26.7100 
600.152	0.2104	-1.0376	1.2979	26.1530	-9.3109	12.5079	26.7100 
600.172	0.0220	-1.3555	0.9282	29.7455	-10.2667	11.8762	26.7100 
600.192	-0.2075	-1.6938	0.6997	32.7393	-11.2994	10.7831	26.7000 
600.212	-0.9116	-2.3359	0.0869	34.5190	-11.1896	8.8989	26.6900 
600.233	-1.0430	-2.7051	-0.3853	34.2059	-9.6240	7.5476	26.6800 
600.270	0.0088	0.5469	1.2036	31.1298	-7.4652	8.5199	26.6800 
600.272	0.7065	0.0068	1.0288	27.0044	-6.3171	10.4919	26.6900 
600.291	-0.6851	-0.0854	1.8730	22.8351	-5.2185	11.5686	26.6700 
600.312	-0.0356	-0.0010	1.7998	18.6658	-4.7900	11.6455	26.6700 
600.332	1.1113	-1.3662	2.6348	14.0900	-5.2185	12.4860	26.6900 
600.351	0.0024	-0.0879	1.5229	10.6348	-6.0919	12.3212	26.7200 
600.370	-0.0327	-0.0430	1.3525	8.8989	-7.2180	12.2882	26.7300 
600.391	0.0981	-0.0601	1.1387	8.0804	-7.5806	12.3157	26.7100 
600.411	0.1333	-0.0547	1.0498	7.3938	-7.6959	12.3926	26.7200 
600.430	0.1523	-0.0269	0.9946	6.8280	-7.7948	12.4530	26.7400 
600.450	0.1509	-0.0693	1.0356	6.3446	-7.8717	12.5958	26.7300 
600.471	0.1426	-0.0684	1.0332	5.8942	-7.8717	12.7332	26.7300 
600.506	0.1304	-0.0776	1.0396	5.4822	-7.9486	12.8595	26.7300 
600.510	0.1211	-0.0508	1.0020	5.2295	-8.0310	12.9584	26.7100 
600.531	0.1167	-0.0469	1.0034	4.8615	-8.1573	13.0078	26.7100 
600.550	0.1714	-0.0928	1.0229	4.4165	-8.3441	13.1012	26.7200 
600.570	0.1689	-0.0903	1.0200	3.9771	-8.4485	13.2495	26.7300 
600.590	0.1611	-0.0864	1.0117	3.5101	-8.4650	13.4363	26.7500 
600.610	0.1528	-0.0801	1.0049	3.0542	-8.4485	13.6505	26.7400 
600.630	0.1445	-0.0830	1.0063	2.5653	-8.4265	13.8702	26.7400 
600.650	0.1372	-0.0859	1.0049	2.0435	-8.4155	14.1010	26.7500 
600.697	0.1494	-0.1055	1.0044	1.4667	-8.3496	14.3921	26.7300 
600.700	0.1489	-0.1250	1.0078	0.8240	-8.1958	14.7382	26.7300 
600.710	0.1353	-0.1235	1.0049	0.0604	-7.9047	15.0842	26.7400 
600.729	0.1055	-0.1426	1.0190	-0.8130	-7.5037	15.3918	26.7500 
600.749	0.1040	-0.1650	1.0127	-1.8567	-6.9873	15.6116	26.7300 
600.769	0.1074	-0.1792	1.0171	-3.1091	-6.4105	15.7764	26.7400 
600.789	0.0962	-0.2246	1.0386	-4.6143	-5.7898	15.9082	26.7500 
600.809	0.0864	-0.2534	1.0063	-6.0205	-5.2240	15.9741	26.7500 
600.829	0.0840	-0.2700	1.0176	-6.9049	-4.7241	15.9686	26.7500 
600.849	0.0811	-0.2485	1.0371	-7.4872	-4.3176	15.9357	26.7400 
600.882	0.0874	-0.2178	1.0708	-8.2672	-3.9661	15.9302	26.7400 
600.888	0.1045	-0.2124	1.0605	-9.6844	-3.6145	16.0675	26.7500 
600.908	0.1846	-0.1240	1.1729	-12.1454	-3.5156	16.5344	26.7400 
600.928	0.0850	0.2949	1.4756	-16.0016	-3.5321	17.3529	26.7500 
600.948	0.5249	-0.0322	1.4829	-22.3627	-3.5706	18.6823	26.7500 
600.968	0.4985	0.3667	2.1816	-30.2069	-1.7468	19.7150	26.7200 
600.988	0.2446	0.6704	2.6934	-33.7720	2.0325	19.3085	26.7300 
601.008	0.9248	0.7656	1.4697	-33.2227	3.6859	20.1050	26.7200 
601.028	0.8193	0.6113	0.9473	-30.9155	4.5483	20.6982	26.7100 
601.057	0.6108	0.4668	0.8301	-27.9053	4.8065	20.7532	26.7100 
601.070	0.4600	0.2334	0.9155	-24.5160	4.1803	20.7806	26.7300 
601.088	0.3076	0.1123	1.0439	-20.7971	2.8839	20.6982	26.7300 
601.108	0.0249	-0.0371	1.1460	-16.8640	1.3184	20.3247	26.7200 
601.142	-0.1816	-0.1309	1.1978	-12.7826	-0.3186	19.7314	26.7100 
601.147	-0.3628	-0.2261	1.2231	-8.6078	-1.8842	19.1327	26.7000 
601.167	-0.3438	-0.2827	1.2090	-4.5044	-3.2190	18.7372	26.7000 
601.187	-0.2324	-0.2998	1.2578	-0.5328	-4.2792	18.5889	26.7000 
601.207	-0.1270	-0.2993	1.3315	3.2629	-5.2130	18.6108	26.6900 
601.227	-0.0088	-0.3516	1.4858	6.9049	-6.2238	18.7592	26.7000 
601.247	0.0381	-0.3770	1.4707	10.5414	-7.3279	18.8965	26.6900 
601.267	0.2114	-0.4209	1.3804	14.0735	-8.5364	19.0173	26.6900 
601.287	0.3271	-0.4683	1.3477	17.4023	-9.7778	19.0338	26.6900 
601.340	0.3379	-0.5142	1.3052	20.4840	-10.9644	18.5724	26.6800 
601.342	0.2471	-0.5713	1.2485	23.3789	-12.0410	17.5177	26.6700 
601.347	-0.0020	-0.7261	1.0542	26.0541	-12.8760	16.0840	26.6900 
601.367	-0.1992	-0.8828	0.9590	28.6194	-13.6121	14.6558	26.6700 
601.387	-0.6172	-1.2324	0.8335	31.0364	-12.5189	11.1786	26.6900 
601.406	-0.8208	-1.5337	0.6211	32.7722	-11.4917	8.4485	26.6800 
601.426	-0.4692	-1.5552	0.3452	33.2886	-10.7281	7.1466	26.7000 
601.446	-0.1118	-1.0957	0.3472	32.0251	-9.7778	7.7014	26.6800 
601.466	0.6475	0.6147	0.9624	29.1302	-8.6353	9.9701	26.6700 
601.486	0.4985	0.1396	0.5146	25.9717	-7.3663	11.4697	26.6700 
601.533	-0.6685	-0.0703	1.6230	22.0990	-5.5811	11.6290	26.6500 
601.534	-0.0435	0.0239	1.4746	18.3856	-4.9988	11.7444	26.6400 
601.546	1.1597	0.2119	1.9277	14.1779	-5.6415	12.5244	26.6700 
601.566	-0.2578	-0.1064	1.6626	9.9152	-6.0315	12.6837	26.7000 
601.585	0.1509	-0.0947	1.3115	7.6849	-6.7017	12.5739	26.7200 
601.605	0.1157	-0.0933	1.1782	6.9214	-6.7896	12.5299	26.7200 
601.625	0.0898	-0.0620	1.0957	6.4160	-6.7566	12.4695	26.7000 
601.645	0.1299	-0.0435	1.0469	6.1084	-6.7950	12.4310	26.7100 
601.664	0.1470	-0.0508	1.0132	5.8557	-6.8719	12.4091	26.7300 
601.684	0.1338	-0.0464	1.0229	5.6085	-6.9928	12.3596	26.7200 
601.718	0.1489	-0.0503	1.0225	5.4547	-7.1136	12.3047	26.7000 
601.724	0.1470	-0.0449	0.9951	5.2515	-7.2784	12.2717	26.7100 
601.744	0.1450	-0.0352	0.9785	4.9164	-7.4542	12.2498	26.7200 
601.765	0.1699	-0.0630	1.0000	4.5593	-7.7344	12.2443	26.7400 
601.784	0.1743	-0.0708	1.0073	4.1968	-8.0145	12.2882	26.7400 
601.807	0.1680	-0.0791	1.0269	3.8177	-8.1793	12.3651	26.7200 
601.824	0.1592	-0.0830	1.0269	3.4222	-8.2397	12.4310	26.7300 
601.857	0.1743	-0.0728	1.0039	2.9718	-8.2947	12.5189	26.7100 
601.865	0.1748	-0.0786	1.0000	2.4719	-8.3551	12.6508	26.7000 
601.908	0.1631	-0.0737	0.9961	1.9556	-8.3881	12.8210	26.7200 
601.911	0.1724	-0.1094	1.0137	1.3403	-8.3716	13.0353	26.7200 
601.924	0.1533	-0.1128	1.0049	0.6207	-8.1683	13.3264	26.7200 
601.944	0.1396	-0.1201	1.0142	-0.1373	-7.8662	13.6285	26.7100 
601.963	0.1230	-0.1333	1.0171	-1.0162	-7.4652	13.8867	26.7200 
601.983	0.1245	-0.1831	1.0244	-2.0215	-6.9873	14.0570	26.7100 
602.003	0.1260	-0.1860	1.0195	-3.1036	-6.3556	14.1284	26.7200 
602.023	0.1309	-0.2031	1.0371	-4.3341	-5.6854	14.1669	26.7300 
602.043	0.1152	-0.2139	1.0176	-5.4712	-5.0592	14.1779	26.7200 
602.108	0.1133	-0.2100	1.0562	-6.2512	-4.4659	14.1559	26.7300 
602.113	0.0874	-0.1743	1.0791	-7.0862	-3.9606	14.1779	26.7300 
602.113	0.0786	-0.2065	1.0464	-8.4705	-3.5486	14.3042	26.7400 
602.123	0.1343	-0.1934	1.1265	-10.6952	-3.3344	14.6448	26.7300 
602.143	0.0913	0.2964	1.3711	-14.4525	-3.2629	15.3864	26.7300 
602.162	0.4751	-0.2021	1.4712	-20.8356	-3.2574	16.6553	26.7500 
602.183	0.5601	-0.1475	1.6191	-29.5203	-2.3181	18.1879	26.7200 
602.202	0.2607	-0.4390	3.2568	-35.7495	1.1810	18.1439	26.7200 
602.222	0.7041	0.6353	2.1230	-37.3041	3.6365	18.2098	26.7100 
602.244	0.8809	0.4839	0.9067	-36.2933	4.4000	18.7756	26.7200 
602.306	0.7412	0.3721	0.7603	-34.3323	4.6582	18.5449	26.7100 
602.311	0.4790	0.2876	0.9507	-31.9373	4.5483	17.7100	26.7100 
602.311	0.3521	0.2290	1.0347	-28.7677	3.9166	16.8530	26.7200 
602.322	0.2085	0.0698	0.9438	-25.0269	2.8070	16.1279	26.6800 
602.342	0.0962	-0.0308	1.0313	-21.0168	1.5271	15.4193	26.6900 
602.362	-0.1021	-0.1318	1.1533	-16.6827	0.1648	14.7546	26.6900 
602.381	-0.1470	-0.2354	1.1938	-12.1893	-1.3623	14.2383	26.7100 
602.401	-0.1084	-0.3613	1.3394	-7.7344	-2.9608	13.8043	26.6900 
602.421	-0.1270	-0.3921	1.4160	-3.2684	-4.3561	13.2550	26.6900 
602.441	-0.1201	-0.4155	1.4644	1.1810	-5.4437	12.6398	26.6800 
602.461	-0.0669	-0.4478	1.5063	5.5206	-6.4050	12.1014	26.6700 
602.481	-0.0034	-0.4844	1.4805	9.6899	-7.3663	11.7114	26.6600 
602.501	0.0869	-0.4893	1.4697	13.6560	-8.3990	11.3654	26.6900 
602.543	0.3242	-0.5767	1.4678	17.2650	-9.5746	11.0852	26.6900 
602.546	0.4033	-0.6938	1.4941	20.6763	-10.7941	10.6732	26.6800 
602.561	0.3545	-0.8706	1.2954	24.1040	-11.9312	9.8877	26.6700 
602.580	0.1270	-0.9956	0.9331	27.6031	-13.0188	8.7726	26.6700 
602.601	-0.3096	-1.3438	0.6206	30.5914	-14.0625	7.1466	26.6700 
602.620	-0.7896	-1.6348	0.6079	32.8271	-13.4583	4.2462	26.6900 
602.640	-0.8857	-1.8013	-0.0435	33.5797	-12.5464	2.2742	26.7000 
602.660	-0.6343	-1.4072	0.1997	31.9318	-10.8325	2.3566	26.6600 
602.683	0.5137	0.5537	1.2632	28.8885	-8.8440	4.0594	26.6600 
602.732	0.8569	0.0508	0.5596	25.6860	-7.5366	6.3995	26.6500 
602.734	-0.1895	-0.1128	1.6230	21.9946	-6.1743	7.2400	26.6400 
602.740	-0.2480	0.1035	1.3735	18.7317	-5.5591	7.1246	26.6500 
602.760	0.9194	0.1001	1.5640	15.0183	-6.2897	7.8497	26.6600 
602.779	-0.2505	0.0171	1.4829	11.0962	-7.1796	8.4320	26.7100 
602.799	0.0830	-0.0640	1.3687	8.3221	-7.8003	8.1903	26.7000 
602.819	0.0801	-0.1108	1.2271	6.9543	-7.6904	8.1903	26.7000 
602.839	0.0991	-0.0757	1.1118	6.1633	-7.6410	8.2288	26.7100 
602.859	0.1426	-0.0537	1.0361	5.6909	-7.7179	8.2507	26.6900 
602.882	0.1704	-0.0674	1.0298	5.3943	-7.8497	8.2672	26.7000 
602.925	0.1709	-0.0562	1.0244	5.1141	-7.9761	8.2947	26.7000 
602.928	0.1519	-0.0684	1.0298	4.7955	-8.1024	8.3441	26.6900 
602.939	0.1567	-0.0640	1.0186	4.5264	-8.2947	8.3716	26.7200 
602.959	0.1694	-0.0542	0.9932	4.2297	-8.5144	8.4100	26.7100 
602.979	0.1860	-0.0732	1.0039	3.8617	-8.7506	8.4979	26.7000 
602.998	0.1841	-0.0845	1.0044	3.4277	-8.8879	8.6243	26.7000 
603.018	0.1714	-0.1025	1.0332	2.9388	-8.8605	8.7506	26.7100 
603.038	0.1675	-0.0967	1.0166	2.4719	-8.8165	8.8715	26.7000 
603.058	0.1738	-0.0776	0.9922	2.0325	-8.7781	9.0088	26.7200 
603.112	0.1797	-0.0825	0.9912	1.5051	-8.7177	9.1791	26.7100 
603.115	0.1606	-0.0986	1.0073	0.8789	-8.6243	9.4153	26.7100 
603.118	0.1426	-0.1304	1.0317	0.1978	-8.4924	9.6735	26.7200 
603.138	0.1411	-0.1274	1.0024	-0.4999	-8.2892	9.9152	26.6900 
603.158	0.1436	-0.1343	0.9976	-1.2469	-8.0365	10.1459	26.7000 
603.178	0.1528	-0.1440	0.9844	-2.1368	-7.6685	10.3491	26.7000 
603.197	0.1367	-0.2075	1.0181	-3.1696	-7.2125	10.5414	26.6900 
603.217	0.1299	-0.2100	1.0259	-4.1968	-6.6412	10.6622	26.7000 
603.237	0.1206	-0.2246	1.0278	-5.1910	-6.0590	10.7062	26.6900 
603.257	0.1157	-0.2368	1.0195	-6.0260	-5.5481	10.6952	26.7100 
603.277	0.1138	-0.2183	1.0439	-6.6193	-5.0977	10.6787	26.7000 
603.297	0.0977	-0.2256	1.0952	-7.2894	-4.7296	10.6677	26.7200 
603.356	0.1206	-0.1328	1.0708	-8.3990	-4.4879	10.8105	26.7200 
603.359	0.1094	0.0317	1.0898	-10.3052	-4.3890	11.1731	26.7200 
603.359	0.1606	0.0317	1.1973	-13.5187	-4.3781	11.8817	26.7000 
603.377	0.0674	0.1914	1.5288	-18.9734	-4.5923	13.1342	26.7100 
603.397	0.2603	-0.0898	1.5391	-26.6199	-5.5591	15.5896	26.7200 
603.416	1.4595	-0.0151	2.6812	-32.7777	-6.4655	18.5229	26.7200 
603.436	1.4116	0.5981	1.8291	-34.4366	-6.0370	19.0009	26.7100 
603.456	0.6040	0.7217	1.2227	-33.4259	-5.4602	17.5122	26.7100 
603.477	0.2866	0.5796	1.0083	-31.1407	-4.9878	15.5621	26.6900 
603.495	0.1528	0.3657	0.9409	-28.1030	-4.5648	14.0845	26.7000 
603.555	0.1924	0.2095	1.1050	-24.5544	-4.0594	13.1671	26.6900 
603.558	0.2490	0.0166	1.0762	-20.6433	-3.6420	12.6727	26.7000 
603.558	0.2378	-0.0933	0.9648	-16.5454	-3.4552	12.4200	26.6900 
603.576	0.1670	-0.1758	0.9795	-12.5519	-3.6914	12.2717	26.6800 
603.595	0.1655	-0.2104	1.0210	-8.8220	-4.2682	12.1454	26.6700 
603.615	0.2690	-0.2148	1.2153	-5.3174	-5.2020	11.9861	26.6700 
603.636	0.2124	-0.1768	1.3911	-1.8127	-6.2567	11.5466	26.6700 
603.655	0.0220	-0.1934	1.5195	1.9501	-7.3334	10.6787	26.6600 
603.675	0.0156	-0.2417	1.5278	5.9491	-8.2892	9.6790	26.6700 
603.695	0.1665	-0.3442	1.3735	9.9316	-9.0472	8.7781	26.6700 
603.743	0.2344	-0.3867	1.2246	13.6340	-9.6735	7.9761	26.6600 
603.747	0.2437	-0.4351	1.1055	16.6772	-10.2173	7.2839	26.6700 
603.755	0.2363	-0.4644	1.4727	19.0558	-10.6732	6.6028	26.6600 
603.775	0.0176	-0.5117	1.5015	21.3245	-11.0468	5.3284	26.6500 
603.795	-0.0811	-0.5552	1.1323	23.9996	-11.2225	3.2629	26.6600 
603.814	-0.1499	-0.6177	0.9565	26.5979	-11.0083	1.2909	26.6500 
603.834	-0.1870	-0.7705	0.7764	28.6908	-10.7721	-0.1868	26.6600 
603.854	-0.0815	-0.9502	0.7637	30.1520	-11.7334	-0.2197	26.6400 
603.874	0.0708	-1.1396	0.6318	31.0583	-13.5901	0.9283	26.6600 
603.894	0.0498	-1.1650	0.5308	31.3605	-15.0238	2.1204	26.6500 
603.942	-0.0396	-1.5015	0.2866	30.5859	-15.5896	3.6090	26.6600 
603.944	-0.1577	-0.7090	0.2090	28.0646	-14.6503	5.8777	26.6100 
603.954	0.2393	0.5215	0.8560	24.9719	-12.3376	7.0093	26.6500 
603.976	-0.5439	-0.0410	1.0908	21.0938	-9.8767	7.6904	26.6400 
603.993	0.0767	-0.1216	1.9531	17.0728	-8.7012	8.0310	26.6100 
604.013	1.2759	-1.0806	2.7402	12.9254	-8.7726	9.1022	26.6300 
604.033	-0.2266	-0.0962	1.6748	9.9591	-9.1241	8.9264	26.6600 
604.053	0.1240	-0.0391	1.2710	7.5366	-10.1349	8.6353	26.6800 
604.073	0.1299	-0.0781	1.1699	6.2402	-10.3711	8.5089	26.6900 
604.094	0.1611	-0.0840	1.0703	5.3998	-10.4205	8.5199	26.6900 
604.135	0.1357	-0.0684	1.0640	4.8669	-10.5084	8.5199	26.6900 
604.138	0.1357	-0.0562	1.0317	4.4440	-10.6073	8.5034	26.6800 
604.153	0.1626	-0.0640	1.0269	4.0759	-10.7776	8.4869	26.6900 
604.173	0.1719	-0.0669	1.0132	3.6584	-10.9918	8.5089	26.6700 
604.193	0.1777	-0.0815	1.0107	3.1860	-11.2280	8.5803	26.6700 
604.213	0.1729	-0.0923	1.0083	2.6752	-11.4423	8.6627	26.6900 
604.232	0.1895	-0.0947	0.9976	2.1918	-11.6071	8.7781	26.6800 
604.252	0.2041	-0.0967	0.9814	1.7358	-11.6400	8.9154	26.6800 
604.272	0.1880	-0.0952	0.9878	1.2579	-11.5631	9.0857	26.6800 
604.292	0.1787	-0.1030	0.9995	0.7086	-11.4148	9.2725	26.6900 
604.312	0.1641	-0.1104	1.0181	0.1318	-11.2170	9.4592	26.7100 
604.332	0.1592	-0.1079	1.0005	-0.4834	-11.0193	9.6295	26.7000 
604.374	0.1626	-0.1460	1.0083	-1.1700	-10.8105	9.8163	26.7000 
604.377	0.1689	-0.1533	1.0068	-1.9116	-10.5304	10.0140	26.6900 
604.392	0.1670	-0.1592	0.9961	-2.8015	-10.1184	10.2393	26.6800 
604.412	0.1475	-0.1709	1.0000	-3.7848	-9.6075	10.4590	26.7000 
604.431	0.1348	-0.1895	1.0034	-4.8395	-8.9978	10.6512	26.6900 
604.450	0.1235	-0.2578	1.0347	-5.9821	-8.3057	10.7996	26.7100 
604.471	0.1079	-0.2441	1.0264	-6.9269	-7.5861	10.8435	26.6900 
604.491	0.1035	-0.2446	1.0371	-7.7179	-6.9598	10.8380	26.6900 
604.511	0.0767	-0.2817	1.0313	-8.5529	-6.4709	10.7666	26.6900 
604.565	0.0684	-0.2559	1.0425	-9.4592	-6.0370	10.6677	26.6900 
604.567	0.0884	-0.2305	1.0352	-10.6018	-5.6195	10.5688	26.7000 
604.571	0.1060	-0.2412	1.0479	-12.0575	-5.2240	10.5853	26.6900 
604.591	0.1113	-0.0571	1.1074	-13.9307	-4.9658	11.0193	26.7100 
604.610	0.0884	0.3975	1.6309	-17.6331	-4.8395	12.0959	26.7200 
604.630	0.2861	0.1514	1.8203	-25.7849	-4.7626	13.7054	26.7000 
604.650	0.6455	-0.0332	1.6436	-37.1118	-4.7791	16.0071	26.7100 
604.670	0.2734	-1.1792	4.4419	-46.8018	-2.2742	16.8860	26.6900 
604.690	0.6455	0.6909	2.9741	-48.5815	0.5438	16.8585	26.6900 
604.712	0.7988	0.4355	0.6323	-45.9229	1.8402	17.7869	26.6800 
604.749	0.7983	0.3271	0.5151	-42.3029	2.5928	18.1824	26.6800 
604.751	0.7012	0.2192	0.8340	-38.6719	2.7081	17.8748	26.6700 
604.770	0.5410	0.1792	1.0698	-34.4916	2.1698	17.2156	26.6900 
604.789	0.1792	0.0259	1.1772	-29.3939	0.9229	16.2433	26.6800 
604.810	-0.0962	-0.0845	0.8882	-23.7195	-0.5493	15.1337	26.6700 
604.829	-0.3047	-0.2788	0.9150	-17.9901	-2.0325	14.1779	26.6600 
604.849	-0.3423	-0.3696	1.1768	-12.6233	-3.4442	13.4857	26.6700 
604.869	-0.3057	-0.5176	1.4805	-7.5476	-4.7406	13.1781	26.6500 
604.889	-0.1997	-0.6021	1.6416	-2.6642	-5.9161	13.1232	26.6600 
604.911	0.0303	-0.7007	1.6563	2.0215	-6.9324	13.2825	26.6500 
604.929	0.0552	-0.6973	1.5420	6.6357	-7.7893	13.4583	26.6300 
604.949	0.2236	-0.6812	1.5776	10.9534	-8.6572	13.7604	26.6600 
604.991	0.3511	-0.6978	1.5396	14.9359	-9.7009	14.1449	26.6400 
604.994	0.3999	-0.7373	1.4561	18.6328	-10.9644	14.2438	26.6300 
605.009	0.3188	-0.8071	1.3037	22.0001	-12.2443	13.7988	26.6300 
605.029	-0.1494	-0.7925	1.0366	25.1971	-13.6560	13.0518	26.6400 
605.048	-0.4155	-0.9419	0.8848	28.5315	-13.8043	9.7449	26.6200 
605.069	-0.7017	-1.0918	0.8335	31.0913	-13.3539	7.2620	26.6300 
605.088	-0.6558	-1.3467	0.3940	32.7942	-12.9309	6.0535	26.6300 
605.110	-0.2476	-1.3540	0.3354	33.1293	-13.7769	6.6302	26.6400 
605.128	0.1895	-0.8818	0.2134	32.0966	-14.8865	8.6133	26.6400 
605.178	0.0254	-0.6426	0.3311	29.1248	-14.0515	11.2500	26.6300 
605.182	0.4780	0.5859	0.6270	26.0376	-11.8103	12.6727	26.6200 
605.188	-0.3291	-0.1563	1.2700	21.6266	-9.7119	13.1561	26.6300 
605.208	-0.8774	0.1104	1.3394	17.6660	-8.4100	12.9254	26.6200 
605.228	1.3262	-0.7476	2.8809	12.1783	-8.8165	13.5626	26.6200 
605.247	-0.2842	-0.2661	2.2607	6.9653	-9.9756	13.7384	26.6700 
605.267	0.1592	-0.1611	1.2910	4.8999	-10.3271	13.8757	26.6800 
605.287	0.1289	-0.1284	1.1177	3.9661	-10.2777	14.0350	26.6900 
605.308	0.0845	-0.1426	1.1172	3.3838	-10.2283	14.1724	26.6700 
605.327	0.1201	-0.0991	1.0420	3.1091	-10.2063	14.2218	26.6700 
605.364	0.1343	-0.0757	0.9800	2.8784	-10.1788	14.2493	26.6700 
605.366	0.1567	-0.0972	1.0156	2.6752	-10.1733	14.2767	26.6800 
605.387	0.1758	-0.0972	0.9883	2.5104	-10.2283	14.3646	26.6800 
605.407	0.1235	-0.0874	1.0093	2.2961	-10.3436	14.4690	26.6700 
605.427	0.1548	-0.1001	0.9951	1.9940	-10.5414	14.5898	26.6800 
605.446	0.1465	-0.1108	1.0215	1.6040	-10.8929	14.7546	26.6800 
605.466	0.1494	-0.1104	1.0029	1.1920	-11.2115	14.9524	26.6600 
605.487	0.1802	-0.1245	1.0020	0.8020	-11.2775	15.1501	26.6600 
605.506	0.1714	-0.1230	1.0098	0.4120	-11.2610	15.3534	26.6700 
605.561	0.1729	-0.1074	0.9829	-0.0275	-11.2006	15.5896	26.6800 
605.570	0.1519	-0.1167	1.0010	-0.5988	-11.0522	15.8752	26.6800 
605.573	0.1328	-0.1631	1.0244	-1.3348	-10.8435	16.2268	26.6500 
605.586	0.1250	-0.1523	1.0107	-2.0709	-10.5853	16.5454	26.6900 
605.607	0.1445	-0.1602	0.9980	-2.8400	-10.2502	16.8311	26.6800 
605.626	0.1392	-0.1753	0.9907	-3.8068	-9.8438	17.1167	26.6800 
605.646	0.1221	-0.1831	0.9858	-4.8560	-9.3878	17.3859	26.6700 
605.665	0.1162	-0.2476	1.0249	-6.0095	-8.8770	17.6111	26.6800 
605.685	0.1055	-0.2568	1.0093	-7.0422	-8.3331	17.7100	26.6800 
605.705	0.1108	-0.2607	1.0269	-7.7399	-7.8058	17.7209	26.6800 
605.748	0.1030	-0.2622	1.0322	-8.3112	-7.3718	17.6880	26.6800 
605.751	0.0854	-0.2979	1.0488	-9.1132	-6.9928	17.6715	26.6900 
605.764	0.0874	-0.2222	1.0449	-10.1624	-6.6302	17.6935	26.6900 
605.785	0.1113	-0.2383	1.0361	-11.5906	-6.3116	17.7979	26.7000 
605.805	0.1040	-0.0698	1.0830	-13.5077	-6.0535	18.1659	26.7100 
605.825	0.0068	0.2007	1.3975	-16.6498	-5.8008	18.9954	26.6900 
605.845	0.2036	-0.1069	1.8926	-23.7469	-5.5426	20.1819	26.6900 
605.864	0.5537	-0.0415	1.7783	-34.7113	-5.4492	21.5991	26.6800 
605.885	0.0493	-0.5693	3.6851	-45.1208	-3.1696	21.6376	26.6700 
605.904	0.2285	0.7578	3.8608	-49.7131	0.6427	20.2808	26.6500 
605.924	0.9463	0.5288	0.9434	-48.0872	2.3950	21.6431	26.6700 
605.944	1.0522	0.3364	0.5669	-44.9506	3.3014	22.7582	26.6600 
605.988	0.9199	0.2275	0.9546	-41.6876	3.7299	22.3572	26.6500 
605.990	0.6396	0.1812	1.0229	-37.8809	3.4003	21.3629	26.6600 
606.004	0.2935	-0.0059	1.1470	-33.0634	2.0599	20.4291	26.6300 
606.024	0.0967	-0.1270	1.1777	-27.6471	0.3735	19.5062	26.6400 
606.048	-0.2935	-0.3037	1.0742	-21.8628	-1.1041	18.5834	26.6400 
606.064	-0.3960	-0.4160	1.0542	-16.0840	-2.4170	17.9572	26.6200 
606.084	-0.2852	-0.4761	1.1074	-10.7611	-3.7848	17.9462	26.6300 
606.103	-0.2183	-0.4771	1.2339	-5.9271	-5.0317	18.1604	26.6300 
606.123	-0.0049	-0.5337	1.5156	-1.5381	-6.0919	18.4406	26.6300 
606.143	0.1553	-0.6235	1.6440	2.7301	-7.0532	18.6658	26.6200 
606.178	0.2158	-0.7388	1.8413	7.1576	-7.9376	18.7207	26.6000 
606.183	0.3081	-0.8423	1.6860	11.7444	-9.1901	18.6438	26.6100 
606.203	0.3623	-0.9531	1.5181	16.1938	-11.0358	18.2043	26.6000 
606.223	0.1787	-1.0620	1.4536	20.3412	-12.8320	17.1002	26.6000 
606.244	-0.1230	-1.1323	1.3232	24.2908	-14.3756	15.7379	26.6000 
606.263	-0.4824	-1.4771	0.8833	27.7570	-15.9357	14.4635	26.6000 
606.282	-0.6230	-1.8359	0.6138	30.2124	-17.9132	13.7384	26.6100 
606.303	-0.5117	-2.1465	0.0913	31.4868	-20.4181	13.6230	26.6300 
606.323	0.1035	-1.7539	-0.4219	31.1298	-22.5330	14.0076	26.6000 
606.371	0.3389	-0.1792	1.0010	27.7405	-21.7639	16.0510	26.6100 
606.376	0.4609	0.6328	0.4014	24.5490	-19.3689	17.3419	26.6000 
606.382	-1.1929	-0.0967	1.8511	20.4291	-16.5179	18.0176	26.5700 
606.402	-0.3296	-0.2085	2.3252	15.9851	-15.3699	18.3472	26.5700 
606.422	0.1235	-0.6470	2.0396	11.8817	-15.8807	19.6106	26.6000 
606.442	-0.3267	0.0063	1.6899	8.9429	-17.1936	18.6823	26.6100 
606.462	0.0981	-0.0269	1.2412	6.4600	-18.0615	18.3801	26.6200 
606.481	0.2402	-0.0630	1.0742	5.0262	-18.1384	18.3417	26.6400 
606.502	0.1885	-0.0957	1.0801	3.8068	-18.0341	18.5284	26.6300 
606.521	0.1602	-0.1187	1.0942	2.7136	-17.9352	18.6823	26.6300 
606.543	0.1572	-0.1084	1.0742	1.8402	-17.9681	18.7866	26.6200 
606.561	0.1860	-0.1196	1.0454	1.1371	-18.1384	18.9020	26.6400 
606.623	0.1934	-0.1191	1.0015	0.5493	-18.3252	19.0613	26.6300 
606.626	0.1997	-0.1216	1.0063	0.0330	-18.4900	19.2261	26.6400 
606.626	0.2021	-0.1284	0.9961	-0.5109	-18.5779	19.4019	26.6300 
606.641	0.1982	-0.1372	1.0000	-1.1316	-18.5779	19.5831	26.6400 
606.661	0.1934	-0.1548	1.0161	-1.8237	-18.5284	19.8029	26.6300 
606.681	0.1987	-0.1572	0.9932	-2.5378	-18.4790	20.0281	26.6500 
606.702	0.2114	-0.1626	0.9766	-3.2465	-18.4186	20.2972	26.6400 
606.720	0.2246	-0.1797	0.9434	-3.9880	-18.2922	20.6158	26.6300 
606.741	0.2134	-0.1943	0.9736	-4.7186	-18.0066	20.9949	26.6400 
606.760	0.2031	-0.1870	0.9683	-5.3668	-17.6276	21.3629	26.6400 
606.824	0.1709	-0.1978	0.9907	-6.0315	-17.1277	21.6815	26.6500 
606.827	0.1553	-0.2129	0.9961	-6.7511	-16.5509	21.9177	26.6400 
606.827	0.1670	-0.2251	0.9922	-7.4542	-15.9357	22.0660	26.6400 
606.840	0.1714	-0.2241	0.9858	-8.1958	-15.2545	22.1759	26.6600 
606.860	0.1533	-0.2759	1.0112	-8.9813	-14.5569	22.3297	26.6600 
606.880	0.1133	-0.2944	1.0342	-9.5746	-13.8922	22.4286	26.6600 
606.900	0.1157	-0.2676	1.0215	-9.9481	-13.3099	22.4451	26.6700 
606.920	0.1143	-0.2637	1.0469	-10.3271	-12.7112	22.3792	26.6600 
606.942	0.0801	-0.2339	1.0615	-10.9698	-12.0575	22.2144	26.6600 
606.959	0.1240	-0.1201	1.0283	-12.0300	-11.4423	22.0990	26.6700 
607.025	0.1597	0.0747	1.1558	-13.8153	-10.9973	22.3297	26.6600 
607.028	0.0864	0.3403	1.5400	-17.3694	-10.6567	23.1812	26.6600 
607.028	0.3711	0.1504	1.9429	-25.2850	-10.4535	24.6478	26.6600 
607.039	0.7036	0.0576	1.7852	-37.0349	-10.6952	27.1362	26.6600 
607.058	0.9219	-1.1035	4.6558	-46.7303	-8.3002	27.7405	26.6200 
607.078	1.0522	0.9629	2.9180	-48.9825	-5.4712	26.2628	26.6300 
607.099	0.6387	0.6792	0.6318	-46.3953	-4.4714	25.2301	26.6500 
607.118	0.5293	0.5649	0.7539	-42.9785	-3.5376	23.8458	26.6500 
607.139	0.4819	0.4053	1.0400	-39.2596	-2.6862	22.5385	26.6200 
607.158	0.4346	0.2651	1.0630	-34.7388	-2.1478	21.5662	26.6400 
607.221	0.3481	0.0371	1.0181	-29.4489	-1.9720	20.8521	26.6000 
607.224	0.1938	-0.1162	0.9365	-23.9557	-2.1204	20.3357	26.6100 
607.224	-0.0049	-0.2969	1.1123	-18.4570	-2.8235	20.2368	26.6000 
607.238	-0.0366	-0.3975	1.2998	-13.0408	-4.0814	20.5170	26.6000 
607.258	0.1431	-0.6309	1.5430	-7.7618	-5.9821	21.0498	26.6000 
607.278	0.2217	-0.7178	1.5688	-2.5488	-8.1024	21.3245	26.5800 
607.298	0.1504	-0.7520	1.6245	2.4939	-10.0525	20.9290	26.5700 
607.318	0.1123	-0.8047	1.7583	7.3114	-11.8213	20.0610	26.6000 
607.339	0.0342	-0.9312	1.8193	11.9421	-13.4198	18.8855	26.5800 
607.357	0.0176	-1.0049	1.6875	16.4465	-14.9469	17.7924	26.5800 
607.412	0.0430	-1.0991	1.5791	20.7477	-16.6388	17.1716	26.5900 
607.414	-0.1582	-1.2397	1.2285	24.8895	-18.1824	16.5454	26.5800 
607.417	-0.3843	-1.4102	0.8188	28.6523	-19.7864	15.7599	26.5900 
607.437	-0.6553	-1.8896	0.4502	31.3495	-21.4453	15.2161	26.6000 
607.457	-0.7354	-2.0474	0.1733	32.6129	-23.1921	15.3369	26.5800 
607.477	-0.3472	-1.8916	-0.0322	31.6132	-24.4061	16.5839	26.5800 
607.497	0.0146	-0.8394	0.9600	27.5427	-23.3734	19.7150	26.5600 
607.516	0.6240	0.4780	0.3120	24.0161	-21.1761	21.4124	26.5800 
607.536	-0.2080	-0.1221	1.3530	19.5831	-19.3634	21.9397	26.5700 
607.558	-0.6631	0.0620	1.3936	15.5182	-18.2703	21.7749	26.5600 
607.607	1.5957	-1.7383	3.3340	10.0140	-18.9075	22.8790	26.5700 
607.609	-0.2856	-0.1631	2.1357	6.0974	-20.0006	22.6703	26.6000 
607.616	0.1240	-0.1626	1.3472	4.2297	-20.0006	22.5439	26.6000 
607.636	0.1128	-0.0864	1.1196	3.4607	-19.7589	22.3846	26.6200 
607.656	0.1206	-0.0991	1.0767	3.0048	-19.5447	22.2308	26.6200 
607.676	0.1421	-0.0840	1.0508	2.7466	-19.3909	22.0880	26.6000 
607.695	0.1533	-0.0723	1.0020	2.4115	-19.2755	21.9727	26.6100 
607.716	0.1665	-0.0767	1.0132	2.0490	-19.1382	21.8738	26.6100 
607.735	0.1636	-0.0835	1.0000	1.6095	-19.0063	21.8353	26.5900 
607.755	0.1465	-0.0869	0.9878	1.2250	-18.9240	21.8188	26.6000 
607.795	0.1509	-0.0830	0.9868	0.9283	-18.9349	21.8024	26.6100 
607.798	0.1777	-0.1040	0.9985	0.5658	-19.0009	21.8243	26.6000 
607.815	0.1641	-0.1118	1.0161	0.1703	-18.9679	21.8848	26.6200 
607.835	0.1577	-0.0996	1.0117	-0.1923	-18.8416	21.9452	26.6200 
607.855	0.1597	-0.1040	1.0015	-0.6372	-18.7042	22.0276	26.6200 
607.875	0.1602	-0.1064	1.0034	-1.1700	-18.5175	22.1155	26.6200 
607.895	0.1519	-0.1440	1.0176	-1.8457	-18.2648	22.2968	26.6300 
607.915	0.1348	-0.1348	1.0034	-2.6862	-17.8418	22.5110	26.6200 
607.934	0.1270	-0.1392	1.0024	-3.6859	-17.3145	22.6978	26.6200 
607.985	0.1118	-0.1606	1.0005	-4.9658	-16.7157	22.8625	26.6200 
607.989	0.1060	-0.2134	1.0117	-6.4380	-16.0730	22.9724	26.6200 
607.994	0.1011	-0.2441	1.0249	-7.9871	-15.3864	22.9889	26.6000 
608.014	0.0972	-0.2744	1.0181	-9.3549	-14.6832	22.8735	26.6200 
608.034	0.1084	-0.2959	1.0151	-10.3326	-14.0131	22.6648	26.6400 
608.053	0.1064	-0.3066	1.0205	-11.0303	-13.3923	22.4341	26.6400 
608.074	0.0967	-0.2534	1.0342	-11.7224	-12.8101	22.2308	26.6100 
608.094	0.0850	-0.2881	1.0015	-12.7441	-12.2443	22.0770	26.6400 
608.114	0.1289	-0.1787	1.0474	-14.1559	-11.6949	22.1155	26.6400 
608.137	0.1445	-0.0786	1.0859	-16.5399	-11.2280	22.6373	26.6400 
608.154	0.0854	0.2510	2.0200	-20.8685	-10.9424	23.9282	26.6500 
608.173	0.4268	0.0078	1.9668	-29.5862	-10.2283	26.0321	26.6500 
608.226	0.5869	-0.0713	1.7046	-40.8856	-8.2397	28.0316	26.6200 
608.229	0.2012	-1.1743	4.0156	-49.5648	-3.8397	27.9547	26.6300 
608.233	1.0508	0.5337	2.1558	-50.9161	-1.2030	28.4766	26.6300 
608.253	1.0928	0.4023	0.5791	-48.8452	-0.6427	30.0311	26.6200 
608.273	0.8887	0.1851	0.6416	-45.8514	-0.9998	30.1685	26.6000 
608.293	0.6582	0.1870	1.0322	-42.4237	-1.7523	29.1907	26.6000 
608.313	0.2471	0.0664	1.1563	-37.7985	-3.1641	27.8503	26.6000 
608.332	0.0264	-0.0698	1.0757	-32.2998	-4.8340	26.5375	26.6000 
608.352	-0.2466	-0.2739	1.0005	-26.3892	-6.3995	25.4169	26.5800 
608.372	-0.3491	-0.3442	0.9604	-20.4620	-7.8058	24.5874	26.5900 
608.416	-0.2588	-0.4585	1.1030	-14.9249	-9.1351	24.2303	26.5800 
608.419	-0.1831	-0.4766	1.3223	-9.7559	-10.2997	24.0436	26.5700 
608.432	-0.1997	-0.4629	1.5430	-4.6967	-11.2445	23.7744	26.5800 
608.453	-0.0806	-0.4902	1.4370	0.3186	-12.2168	23.4998	26.5600 
608.472	0.1631	-0.5425	1.3516	4.9329	-13.3374	23.2416	26.5800 
608.492	0.3535	-0.5332	1.5205	9.1406	-14.4360	22.7856	26.5800 
608.512	0.4956	-0.6685	1.8677	13.1342	-15.3314	21.8188	26.5800 
608.532	0.2642	-0.7837	1.7026	17.2760	-16.1884	20.2313	26.5700 
608.552	-0.0317	-0.9131	1.3569	21.6595	-17.3694	18.3032	26.5500 
608.599	-0.5244	-1.1313	0.8809	25.8563	-18.1329	15.9686	26.5600 
608.602	-0.8228	-1.3140	0.7676	29.2401	-17.5946	12.9584	26.5600 
608.611	-0.5957	-1.7188	0.6338	31.0968	-18.4021	11.7499	26.5500 
608.631	-0.2632	-1.8115	0.3276	31.4758	-20.9399	12.7991	26.5600 
608.651	-0.2939	-1.8447	0.1182	29.5148	-21.4893	14.9304	26.5500 
608.672	-0.0693	-0.6724	0.8003	25.6970	-19.9951	18.1274	26.5500 
608.691	0.1460	0.3027	0.7646	22.0770	-17.7209	19.4019	26.5400 
608.713	-0.5435	-0.1655	1.6128	17.8638	-16.0126	19.6051	26.5400 
608.731	0.3926	-0.0850	1.8555	13.8318	-15.4523	19.7314	26.5500 
608.751	0.5205	-0.8047	2.0010	8.9539	-16.0071	20.7916	26.5600 
608.773	0.1606	-0.0869	1.3701	5.8063	-17.0068	20.4181	26.5800 
608.790	-0.0005	-0.0933	1.2534	4.1364	-17.0508	20.3467	26.5700 
608.837	0.0698	-0.0693	1.0586	3.4497	-16.8970	20.3741	26.5800 
608.841	0.1343	-0.1045	1.0718	2.8949	-16.7816	20.3577	26.5900 
608.850	0.1060	-0.1011	1.0610	2.3895	-16.6168	20.3412	26.6000 
608.870	0.1230	-0.0820	1.0396	1.9666	-16.4905	20.2863	26.5800 
608.890	0.1509	-0.0884	1.0005	1.4996	-16.3971	20.3137	26.5900 
608.910	0.1299	-0.0864	0.9863	1.0217	-16.2982	20.3687	26.6000 
608.931	0.1465	-0.1128	1.0220	0.6262	-16.2708	20.4346	26.6000 
608.950	0.1577	-0.1040	0.9888	0.1648	-16.2323	20.5554	26.5900 
608.971	0.1362	-0.1133	1.0103	-0.2966	-16.1389	20.7147	26.5800 
608.989	0.1191	-0.1255	1.0186	-0.7800	-16.0236	20.8740	26.5800 
609.027	0.1362	-0.1157	1.0034	-1.2195	-15.9027	21.0333	26.6000 
609.030	0.1357	-0.1440	1.0166	-1.7358	-15.7324	21.2421	26.5900 
609.049	0.1152	-0.1362	1.0156	-2.3511	-15.4468	21.4893	26.5800 
609.069	0.1050	-0.1382	1.0151	-3.0817	-15.0677	21.7035	26.5900 
609.089	0.1030	-0.1563	1.0107	-4.0210	-14.6063	21.8628	26.5700 
609.109	0.0972	-0.1895	1.0117	-5.1691	-14.1010	22.0111	26.5800 
609.129	0.0981	-0.2192	1.0078	-6.5643	-13.5516	22.1484	26.5800 
609.149	0.0981	-0.2456	1.0083	-8.0310	-12.9474	22.2473	26.5900 
609.170	0.0801	-0.2588	1.0063	-9.2505	-12.3431	22.2473	26.5900 
609.220	0.0757	-0.2886	1.0107	-10.0525	-11.7609	22.1210	26.6000 
609.222	0.0698	-0.2886	1.0142	-10.5359	-11.2115	21.9177	26.6100 
609.229	0.0806	-0.2744	1.0220	-10.9479	-10.7336	21.7035	26.5900 
609.248	0.0518	-0.2744	1.0078	-11.5466	-10.3217	21.5607	26.6000 
609.268	0.0703	-0.2461	1.0581	-12.3816	-9.9536	21.5387	26.6000 
609.288	0.0747	-0.0532	1.0869	-13.7769	-9.6350	21.8134	26.6200 
609.308	0.0840	0.2832	1.3120	-16.1884	-9.4318	22.6373	26.6100 
609.329	0.0747	0.0537	1.8291	-22.0276	-9.2999	23.9941	26.6400 
609.348	0.4434	-0.1226	1.8906	-32.4207	-9.0912	25.8563	26.6000 
609.367	0.4805	0.5444	3.0405	-44.0771	-7.5586	27.5702	26.6300 
609.417	0.3677	0.3286	4.2583	-49.1528	-4.0594	27.4164	26.6000 
609.423	0.9248	0.5405	0.9814	-47.8400	-2.1368	28.6194	26.6000 
609.427	0.9624	0.3452	0.4238	-44.9451	-1.0712	29.7345	26.6000 
609.447	0.8882	0.2510	0.6880	-41.8140	-0.6372	29.7784	26.5900 
609.466	0.6875	0.2344	0.9575	-38.2709	-1.1261	29.3719	26.5800 
609.487	0.3115	0.0562	1.1719	-33.9642	-2.8290	28.8721	26.5800 
609.507	0.0776	-0.0889	1.0732	-29.0808	-5.0317	28.2458	26.5700 
609.527	-0.1851	-0.2998	1.0864	-23.9392	-7.2565	27.4878	26.5700 
609.547	-0.2720	-0.4175	1.2983	-18.8031	-9.2999	26.6803	26.5600 
609.567	-0.2964	-0.5103	1.4170	-13.6285	-10.9479	25.9113	26.5800 
609.586	-0.2505	-0.5137	1.3774	-8.4100	-12.1454	25.1752	26.5800 
609.606	-0.1704	-0.5269	1.4688	-3.4167	-12.9529	24.5544	26.5500 
609.661	-0.1816	-0.5337	1.4678	1.3458	-13.6890	23.9941	26.5500 
609.663	-0.0845	-0.6221	1.5171	5.7623	-14.5239	23.6481	26.5500 
609.666	0.0239	-0.7017	1.6714	9.7943	-15.4413	23.5876	26.5500 
609.686	0.1494	-0.7891	1.7295	13.7439	-16.4850	23.5657	26.5200 
609.706	0.1475	-0.8696	1.5625	17.7759	-17.4792	23.3459	26.5400 
609.727	0.1206	-0.9995	1.2813	21.7529	-18.2813	23.1372	26.5500 
609.746	0.0244	-1.3091	0.8247	25.3619	-19.0009	22.8076	26.5300 
609.766	-0.1445	-1.5640	0.5776	28.1964	-19.9182	22.2144	26.5300 
609.785	-0.4878	-1.9370	0.2837	30.0806	-21.2311	21.4508	26.5400 
609.807	-0.5200	-1.8960	0.0469	30.6024	-22.6593	21.0168	26.5400 
609.850	-0.2188	-1.2383	0.1982	28.6469	-23.0219	21.7694	26.5300 
609.853	0.2231	0.4551	1.0786	25.2905	-21.0223	23.1482	26.5000 
609.865	-0.1929	0.0835	0.6904	21.6595	-18.7592	23.4888	26.5000 
609.885	-1.3286	-0.1235	1.9248	17.3145	-16.8256	22.8790	26.5100 
609.904	0.4380	-0.0649	1.7139	12.9694	-16.7212	22.9779	26.5100 
609.925	0.9663	-1.1196	2.1489	7.1851	-17.8308	24.0051	26.5300 
609.945	0.2686	-0.1211	1.2588	4.1254	-18.8031	23.6810	26.5500 
609.964	0.0103	-0.0664	1.1841	2.7686	-18.7427	23.5986	26.5500 
609.986	0.0742	-0.1440	1.1475	1.9556	-18.4955	23.6371	26.5500 
610.037	0.1025	-0.1201	1.0664	1.3898	-18.2318	23.6041	26.5400 
610.039	0.0962	-0.0894	1.0288	0.9668	-18.0231	23.4888	26.5500 
610.044	0.1455	-0.0830	1.0083	0.5438	-17.9407	23.3734	26.5600 
610.064	0.1445	-0.1313	1.0420	0.0714	-17.8802	23.3569	26.5700 
610.084	0.1255	-0.1240	1.0186	-0.3571	-17.7924	23.3459	26.5800 
610.104	0.1392	-0.1167	1.0088	-0.6812	-17.6770	23.3240	26.5800 
610.124	0.1450	-0.1270	1.0063	-1.0547	-17.5452	23.3295	26.5700 
610.144	0.1333	-0.1318	1.0029	-1.4832	-17.3749	23.3569	26.5700 
610.164	0.1216	-0.1377	1.0171	-1.8787	-17.2046	23.4009	26.5700 
610.186	0.1191	-0.1514	1.0225	-2.2742	-17.0123	23.4778	26.5600 
610.228	0.1123	-0.1362	1.0054	-2.7136	-16.7871	23.5492	26.5600 
610.231	0.1152	-0.1426	1.0063	-3.2245	-16.5125	23.5931	26.5700 
610.242	0.1128	-0.1553	1.0127	-3.8782	-16.2103	23.6206	26.5600 
610.263	0.1216	-0.1621	1.0024	-4.7296	-15.8368	23.6755	26.5800 
610.283	0.1138	-0.1748	1.0034	-5.7294	-15.3754	23.7524	26.5800 
610.303	0.0938	-0.2119	1.0063	-6.8774	-14.8590	23.8348	26.5700 
610.323	0.0928	-0.2329	1.0054	-8.0530	-14.3042	23.8843	26.5600 
610.342	0.0801	-0.2559	1.0132	-9.0308	-13.7329	23.8458	26.5600 
610.363	0.0786	-0.2661	1.0029	-9.7284	-13.2056	23.6810	26.5800 
610.382	0.0698	-0.2827	1.0161	-10.1459	-12.6892	23.4009	26.5800 
610.403	0.0835	-0.2754	1.0195	-10.3986	-12.1783	23.0658	26.5800 
610.422	0.0728	-0.2373	1.0225	-10.7721	-11.6949	22.7911	26.5700 
610.468	0.0820	-0.2212	1.0464	-11.4258	-11.2720	22.6593	26.5900 
610.470	0.0928	-0.1099	1.0640	-12.6617	-10.9039	22.7802	26.5800 
610.482	0.0957	-0.0796	1.1001	-14.8260	-10.6622	23.3954	26.6000 
610.502	0.1313	0.4546	1.8164	-19.0283	-10.5579	24.7577	26.6000 
610.522	0.1987	0.0044	1.8213	-27.7679	-10.2448	26.7462	26.6000 
610.542	0.5376	-0.1055	1.5254	-39.8199	-9.5361	29.0094	26.5800 
610.562	0.3638	-0.5054	3.6743	-50.1746	-6.4655	29.4763	26.5700 
610.582	0.7559	0.6279	2.6792	-52.4268	-3.7244	29.3225	26.5600 
610.602	0.7920	0.5146	0.7134	-49.9493	-2.6917	30.5365	26.5700 
610.621	0.8154	0.2236	0.5708	-46.3458	-2.2797	31.0748	26.5800 
610.664	0.7925	0.1792	0.9019	-42.6160	-2.1094	30.8441	26.5600 
610.667	0.5063	0.0659	1.2148	-37.9962	-2.8125	30.2069	26.5500 
610.682	0.2788	-0.0635	1.1382	-32.5305	-4.2902	29.4708	26.5500 
610.702	-0.0884	-0.2422	0.9541	-26.5704	-6.0645	28.5535	26.5600 
610.721	-0.3008	-0.3232	1.0342	-20.6598	-7.6520	27.5702	26.5500 
610.741	-0.3765	-0.4287	1.2993	-15.0348	-9.0747	26.9824	26.5500 
610.761	-0.2642	-0.4692	1.3706	-9.6735	-10.4205	26.7847	26.5400 
610.781	-0.1479	-0.4644	1.4238	-4.5044	-11.6290	26.7462	26.5200 
610.804	-0.1191	-0.4727	1.4185	0.4559	-12.7606	26.5430	26.5300 
610.862	-0.0537	-0.5708	1.4844	4.9878	-13.9087	26.2134	26.5200 
610.865	0.0918	-0.6138	1.5283	9.1296	-15.1337	25.8948	26.5200 
610.865	0.3594	-0.7710	1.7822	12.7936	-16.4520	25.6366	26.5100 
610.880	0.4639	-0.9111	1.8408	16.3751	-17.7484	25.0653	26.5300 
610.900	0.4297	-1.0635	1.6343	20.2698	-19.0063	23.9667	26.5200 
610.920	-0.0220	-1.3521	0.8677	24.2963	-20.2094	22.2638	26.5200 
610.940	-0.4390	-1.7070	0.6968	27.7899	-21.2531	20.0665	26.5100 
610.965	-1.1572	-2.3384	-0.0508	29.8718	-22.5055	18.3032	26.5100 
610.980	-1.0469	-2.3535	-0.4897	29.1138	-23.4064	18.2483	26.5000 
611.001	-0.4956	-0.3257	0.9702	25.7629	-20.9180	19.2865	26.5000 
611.052	0.3574	0.3403	1.4395	21.5662	-18.7372	20.8246	26.4900 
611.066	-0.6177	-0.0996	1.5938	17.3419	-17.2430	21.3849	26.4900 
611.072	-0.0063	0.0020	1.8687	13.2935	-17.0123	21.4673	26.4900 
611.079	0.1133	-0.3271	1.6294	8.8550	-17.6770	22.1649	26.4900 
611.099	-0.1587	-0.0605	1.6108	5.9930	-18.6163	21.6211	26.5300 
611.120	0.0527	-0.0576	1.2153	3.9880	-19.0448	21.3080	26.5400 
611.139	0.1157	-0.0889	1.1304	3.0597	-18.9679	21.1102	26.5600 
611.159	0.1284	-0.0952	1.0718	2.4170	-18.8306	20.9729	26.5400 
611.180	0.1196	-0.0825	1.0430	1.9775	-18.7372	20.8136	26.5400 
611.199	0.1558	-0.0830	1.0186	1.5710	-18.7537	20.6488	26.5600 
611.249	0.1533	-0.0835	1.0142	1.1810	-18.7372	20.5280	26.5400 
611.253	0.1484	-0.1011	1.0083	0.8075	-18.6713	20.4181	26.5400 
611.258	0.1431	-0.0845	0.9961	0.5219	-18.6438	20.2972	26.5300 
611.279	0.1641	-0.0898	0.9897	0.1978	-18.6823	20.1874	26.5400 
611.298	0.1812	-0.0972	0.9849	-0.2252	-18.7372	20.1324	26.5500 
611.318	0.1875	-0.1313	1.0083	-0.7526	-18.7152	20.1489	26.5500 
611.338	0.1733	-0.1172	0.9971	-1.2415	-18.5449	20.1654	26.5400 
611.358	0.1514	-0.1255	1.0176	-1.7468	-18.2813	20.1874	26.5500 
611.378	0.1426	-0.1411	1.0293	-2.2906	-17.9791	20.2094	26.5600 
611.398	0.1436	-0.1431	1.0117	-2.8784	-17.6715	20.2313	26.5500 
611.417	0.1445	-0.1387	1.0068	-3.4882	-17.3474	20.2588	26.5400 
611.438	0.1597	-0.1611	0.9883	-4.1748	-16.9794	20.3302	26.5500 
611.490	0.1362	-0.1670	0.9888	-4.9768	-16.5070	20.4346	26.5400 
611.493	0.1157	-0.1719	0.9961	-5.8502	-15.9192	20.5060	26.5400 
611.497	0.1011	-0.2012	1.0093	-6.8005	-15.2820	20.5115	26.5300 
611.517	0.1016	-0.2246	1.0103	-7.8387	-14.6448	20.4071	26.5400 
611.537	0.1089	-0.2817	1.0220	-8.8385	-14.0186	20.1819	26.5500 
611.557	0.1050	-0.2705	1.0264	-9.4977	-13.4198	19.8798	26.5500 
611.576	0.1143	-0.2393	1.0381	-10.0085	-12.8650	19.5941	26.5500 
611.597	0.0972	-0.2759	1.0669	-10.6567	-12.3541	19.3524	26.5700 
611.619	0.0933	-0.2017	1.0625	-11.5961	-11.8158	19.1766	26.5600 
611.636	0.0801	-0.1909	0.9810	-13.0682	-11.2994	19.1602	26.5700 
611.679	0.0815	-0.1538	1.1274	-15.3479	-10.9698	19.5886	26.5800 
611.683	0.1270	0.2119	2.0518	-20.0061	-10.7721	20.6268	26.5700 
611.696	0.2837	0.1753	1.8794	-29.8389	-10.5743	22.1100	26.5700 
611.716	0.5537	0.0254	1.7183	-42.4567	-9.9426	23.9063	26.5600 
611.736	0.4478	-0.9341	4.5679	-51.3556	-6.5259	22.8900	26.5400 
611.756	0.8306	0.6284	1.9009	-51.4270	-4.1803	22.1320	26.5200 
611.776	0.9497	0.3984	0.6479	-48.7738	-3.4717	22.5989	26.5400 
611.796	0.9238	0.2207	0.5132	-45.1868	-3.6365	22.1484	26.5300 
611.817	0.6816	0.1865	0.8223	-41.3031	-4.1364	20.7092	26.5200 
611.877	0.2910	0.0425	1.1304	-36.5625	-5.0757	18.9734	26.5200 
611.879	0.0859	-0.0596	1.0620	-31.1078	-6.2512	17.4133	26.5000 
611.879	-0.1191	-0.2632	0.9312	-25.3510	-7.3279	16.2103	26.4900 
611.895	-0.1611	-0.3872	1.0142	-19.7534	-8.2123	15.3644	26.5100 
611.915	-0.0308	-0.5146	1.2217	-14.5020	-9.0088	14.9414	26.5300 
611.935	0.0527	-0.5488	1.3271	-9.4318	-9.7888	14.6393	26.4900 
611.954	0.0034	-0.5415	1.3955	-4.4659	-10.6622	14.2053	26.4900 
611.975	-0.0566	-0.5537	1.4194	0.3296	-11.7114	13.6615	26.5000 
611.995	-0.0098	-0.6084	1.4824	4.7900	-12.9749	13.2275	26.5000 
612.015	0.1113	-0.6753	1.5884	8.9099	-14.2218	12.9474	26.5100 
612.070	0.1963	-0.7437	1.7378	12.7771	-15.3369	12.7057	26.5000 
612.072	0.2808	-0.8774	1.6089	16.6058	-16.4410	12.3376	26.5000 
612.074	0.2017	-0.9941	1.3750	20.3632	-17.7264	11.9531	26.5000 
612.094	-0.0688	-1.2212	1.0093	24.1534	-19.2590	11.3763	26.4900 
612.114	-0.2637	-1.4229	0.7368	27.4548	-20.6598	10.5194	26.4900 
612.134	-0.6978	-1.9272	0.4639	29.7125	-22.1594	9.8273	26.4900 
612.154	-0.7363	-1.9927	0.1675	30.6024	-24.1370	9.7449	26.4900 
612.174	-0.4531	-1.2866	-0.0103	28.4161	-24.8676	11.2390	26.4900 
612.194	0.1777	0.2568	1.1753	24.5490	-22.9395	13.7988	26.4800 
612.215	0.4507	0.1001	0.6040	20.2533	-20.5225	15.7874	26.4700 
612.264	-0.6792	-0.2085	1.7202	15.4797	-18.5944	16.3037	26.4600 
612.266	0.8257	0.1738	2.5181	11.0028	-18.1989	16.4685	26.4800 
612.273	0.2710	-0.4668	1.7568	5.1965	-19.1876	17.3639	26.5100 
612.294	0.2534	-0.1421	1.2246	2.7026	-20.0446	17.1387	26.5200 
612.313	0.0791	-0.1108	1.1924	1.5271	-20.1434	17.0288	26.5200 
612.333	0.0830	-0.1143	1.1182	1.0712	-19.8798	16.9519	26.5100 
612.353	0.1162	-0.0913	1.0410	0.8130	-19.5831	16.8530	26.5000 
612.373	0.1377	-0.0835	0.9990	0.5878	-19.3854	16.6992	26.5200 
612.393	0.1211	-0.0767	1.0098	0.3351	-19.2700	16.5454	26.5300 
612.412	0.1626	-0.0806	0.9971	0.0220	-19.1382	16.4301	26.5200 
612.452	0.1738	-0.1040	0.9878	-0.3845	-19.0009	16.4081	26.5100 
612.455	0.1484	-0.0879	0.9893	-0.7031	-18.8690	16.4136	26.5300 
612.472	0.1572	-0.0815	0.9741	-1.0712	-18.7482	16.4410	26.5300 
612.494	0.1421	-0.1270	1.0176	-1.5765	-18.5339	16.5289	26.5100 
612.512	0.1367	-0.1177	1.0117	-2.0544	-18.2538	16.6278	26.5200 
612.532	0.1270	-0.1260	1.0195	-2.5323	-17.9626	16.7267	26.5300 
612.552	0.1309	-0.1138	1.0068	-3.0377	-17.6770	16.8420	26.5400 
612.572	0.1279	-0.1655	1.0249	-3.6694	-17.3419	17.0233	26.5200 
612.592	0.1025	-0.1519	1.0146	-4.4220	-16.9080	17.2266	26.5200 
612.612	0.1006	-0.1548	1.0107	-5.3888	-16.4081	17.4078	26.5200 
612.632	0.0981	-0.1606	1.0020	-6.5918	-15.8752	17.5781	26.5400 
612.651	0.0801	-0.2275	1.0156	-8.0035	-15.3094	17.7264	26.5200 
612.691	0.0864	-0.2534	1.0142	-9.4208	-14.7327	17.8033	26.5100 
612.694	0.0830	-0.2554	1.0127	-10.5963	-14.1669	17.7869	26.5300 
612.711	0.0791	-0.2852	1.0098	-11.4368	-13.6230	17.6276	26.5400 
612.732	0.0762	-0.2896	1.0142	-12.0685	-13.0847	17.4133	26.5300 
612.751	0.0693	-0.2642	1.0225	-12.6508	-12.5574	17.1826	26.5400 
612.771	0.0635	-0.2544	1.0361	-13.4253	-12.0740	17.0068	26.5300 
612.791	0.0806	-0.2266	1.0449	-14.6613	-11.6730	16.9904	26.5500 
612.810	0.1250	-0.0889	1.0615	-16.7267	-11.2610	17.3199	26.5200 
612.832	0.0308	0.3037	1.6074	-20.1654	-11.0028	18.2813	26.5400 
612.880	0.2061	-0.0273	1.8979	-28.1250	-10.4535	19.8248	26.5400 
612.882	0.5210	-0.0005	1.7515	-39.7650	-9.3604	21.4728	26.5400 
612.890	0.1021	-1.3740	4.4312	-50.2130	-6.2842	21.7365	26.5100 
612.910	0.6123	0.6392	3.2495	-53.1628	-3.3234	21.2476	26.5200 
612.932	0.9546	0.4316	0.7446	-51.0040	-2.6257	22.6154	26.5200 
612.950	0.9111	0.3125	0.5747	-47.6752	-2.6752	23.0988	26.5200 
612.970	0.6084	0.2764	0.9199	-43.8959	-3.3014	22.3901	26.5000 
612.990	0.3784	0.1982	1.0903	-39.4464	-4.5428	21.3849	26.5000 
613.010	0.0723	0.0098	1.1357	-34.1180	-6.2732	20.2643	26.5000 
613.031	-0.1885	-0.0767	1.0757	-28.2953	-7.8772	18.9514	26.5000 
613.066	-0.4189	-0.2729	1.1699	-22.2253	-9.1132	17.8583	26.5000 
613.071	-0.3872	-0.3643	1.2559	-16.2268	-10.1349	17.2485	26.4900 
613.089	-0.1416	-0.4829	1.2949	-10.4480	-10.9753	17.1716	26.4900 
613.109	-0.0073	-0.4995	1.4375	-4.8779	-11.7389	17.1497	26.5000 
613.129	0.0503	-0.5044	1.5317	0.5109	-12.5519	16.8036	26.4900 
613.149	0.1074	-0.5562	1.5225	5.7349	-13.4912	16.1499	26.4700 
613.168	0.2397	-0.7324	1.6650	10.5469	-14.4250	15.3369	26.4600 
613.188	0.3809	-0.9888	1.7622	15.1666	-15.1831	14.2767	26.4700 
613.209	0.1626	-1.1318	1.6113	19.7040	-15.7434	12.8705	26.4700 
613.229	-0.2163	-1.7036	1.2949	24.0161	-16.4850	11.5961	26.4600 
613.248	-0.6489	-2.0674	0.6260	27.4493	-17.3145	10.6293	26.4600 
613.268	-1.0952	-2.7803	-0.1597	29.5093	-16.2708	9.1187	26.4500 
613.302	-1.0273	-3.5967	-1.0181	27.8339	-17.3419	10.8435	26.4500 
613.308	0.4844	0.4121	1.9624	23.9886	-15.5896	12.5958	26.4300 
613.328	1.1841	-0.1973	1.3481	19.4019	-15.2216	14.7986	26.4300 
613.348	0.0352	0.5903	2.7510	14.9359	-14.6667	15.5072	26.4300 
613.367	0.5049	-0.6577	1.8799	10.3766	-14.8480	16.5509	26.4400 
613.388	0.2246	-0.1182	1.3105	7.3444	-15.6445	16.5564	26.4700 
613.409	-0.0132	-0.0273	1.1924	5.0647	-16.7761	16.6003	26.4900 
613.427	0.1060	-0.0396	1.0884	3.9935	-17.2980	16.6882	26.4900 
613.447	0.1362	-0.0796	1.0605	3.2245	-17.4957	16.8365	26.4900 
613.504	0.1182	-0.0811	1.0547	2.6587	-17.5891	16.9739	26.5000 
613.507	0.1377	-0.0913	1.0664	2.2302	-17.7045	17.0947	26.4900 
613.510	0.1523	-0.0830	1.0288	1.8732	-17.8033	17.2101	26.4900 
613.527	0.1558	-0.0757	1.0049	1.4392	-17.9132	17.3529	26.4900 
613.547	0.1587	-0.0796	0.9966	0.9943	-18.0341	17.5232	26.4900 
613.567	0.1826	-0.0845	0.9819	0.5658	-18.1824	17.7155	26.4900 
613.586	0.1890	-0.0967	0.9897	0.0824	-18.2813	17.9517	26.5000 
613.607	0.1997	-0.1235	0.9976	-0.4230	-18.2758	18.2318	26.4900 
613.626	0.1709	-0.1133	1.0078	-0.8514	-18.1165	18.5175	26.5000 
613.646	0.1650	-0.1177	1.0063	-1.2744	-17.9022	18.7921	26.4900 
613.695	0.1543	-0.1348	1.0313	-1.7303	-17.6605	19.0668	26.4900 
613.697	0.1670	-0.1255	1.0063	-2.1918	-17.4078	19.3414	26.4800 
613.706	0.1577	-0.1245	0.9980	-2.7301	-17.1167	19.6326	26.5100 
613.726	0.1724	-0.1221	0.9810	-3.3948	-16.7706	19.9731	26.5000 
613.747	0.1475	-0.1558	0.9927	-4.2407	-16.2982	20.3851	26.5000 
613.766	0.1274	-0.1602	0.9873	-5.2625	-15.6995	20.7916	26.5100 
613.786	0.1118	-0.1909	1.0103	-6.4270	-15.0348	21.1487	26.4900 
613.808	0.1074	-0.2134	1.0039	-7.6740	-14.3646	21.4178	26.4900 
613.826	0.1084	-0.2524	1.0176	-8.8605	-13.7219	21.5936	26.5000 
613.847	0.0952	-0.2729	1.0225	-9.8053	-13.0957	21.6760	26.5100 
613.888	0.0952	-0.2642	1.0347	-10.4700	-12.5629	21.7145	26.4900 
613.892	0.0845	-0.2842	1.0488	-11.0687	-12.1729	21.7310	26.4800 
613.905	0.0840	-0.2134	1.0625	-11.8762	-11.8213	21.7804	26.5100 
613.925	0.0991	-0.2212	1.0435	-13.1836	-11.4697	21.9287	26.4900 
613.945	0.0815	-0.0947	1.0762	-15.0842	-11.1346	22.3572	26.5000 
613.970	-0.0317	0.2593	1.3853	-18.2538	-10.8765	23.2965	26.5200 
613.985	0.0728	-0.1567	1.7700	-25.4388	-10.7941	24.7742	26.5200 
614.005	0.4956	-0.0884	1.7261	-36.2000	-11.3104	26.7792	26.5000 
614.025	0.5693	-0.4824	3.2788	-47.4060	-10.4810	28.4106	26.4900 
614.044	0.6694	0.5010	4.1089	-52.6300	-7.5366	27.5427	26.4800 
614.064	0.6646	0.6724	1.0161	-50.8612	-6.1688	27.5262	26.4900 
614.085	0.6421	0.4556	0.6108	-47.4115	-5.4218	27.5043	26.4900 
614.125	0.6343	0.2954	0.8882	-43.4729	-4.8340	26.7792	26.4800 
614.127	0.5005	0.2124	1.1265	-38.9355	-4.4385	25.6860	26.4900 
614.144	0.2998	0.0107	1.1514	-33.4204	-4.5538	24.6039	26.4800 
614.163	0.1826	-0.1479	1.0254	-27.4823	-5.1141	23.7305	26.4700 
614.184	-0.0537	-0.3203	1.0063	-21.4728	-5.9491	23.0548	26.4600 
614.204	-0.1733	-0.4038	1.1846	-15.6775	-6.8445	22.5714	26.4400 
614.224	-0.2021	-0.4810	1.3994	-10.1624	-7.8223	22.4890	26.4500 
614.243	-0.1060	-0.5205	1.4463	-4.8175	-8.8770	22.6813	26.4600 
614.263	0.0259	-0.5659	1.5010	0.2032	-10.0635	22.8955	26.4500 
614.314	-0.0205	-0.6162	1.5928	4.9384	-11.2994	22.8461	26.4400 
614.316	-0.0400	-0.7349	1.7217	9.4373	-12.4915	22.6318	26.4300 
614.324	0.1191	-0.9482	1.7412	13.7384	-13.6835	22.5934	26.4400 
614.344	0.2661	-1.0952	1.6006	17.8363	-14.9414	22.7252	26.4300 
614.363	0.2983	-1.3247	1.2061	21.7200	-16.2488	22.5110	26.4400 
614.384	0.0151	-1.5107	0.9077	25.3180	-17.6001	21.5442	26.4400 
614.403	-0.5005	-1.9150	0.5313	28.2239	-18.7976	20.1544	26.4200 
614.422	-0.8672	-2.1665	0.2876	29.8993	-20.0500	19.1656	26.4100 
614.443	-0.6318	-2.3140	-0.4028	29.2896	-21.4673	19.2535	26.4200 
614.462	-0.1245	-0.2427	0.9453	25.5762	-20.4071	20.4620	26.4100 
614.499	0.4404	0.1880	0.5234	21.6101	-18.5394	22.0935	26.4100 
614.502	-0.3223	-0.2197	1.6948	16.7981	-16.8695	23.1647	26.4000 
614.522	0.0078	0.0225	1.7827	12.3486	-16.5125	23.2910	26.4100 
614.542	0.9863	-1.2471	2.3271	6.7291	-17.6111	24.2798	26.4200 
614.562	-0.0591	-0.0522	1.5024	3.6090	-18.8361	24.0985	26.4600 
614.582	0.0605	-0.1006	1.2456	2.0654	-19.1217	24.0051	26.4600 
614.602	0.1318	-0.0864	1.0884	1.3458	-19.0338	24.0161	26.4800 
614.622	0.1479	-0.0586	1.0044	0.7635	-18.9459	24.0820	26.4600 
614.641	0.1147	-0.0972	1.0688	0.2856	-18.8745	24.1370	26.4600 
614.661	0.1304	-0.0869	1.0483	-0.1318	-18.8416	24.1315	26.4600 
614.681	0.1572	-0.0933	1.0293	-0.5603	-18.9075	24.1479	26.4600 
614.704	0.1636	-0.0986	1.0117	-1.0382	-19.0118	24.2084	26.4700 
614.738	0.1724	-0.1045	1.0073	-1.4667	-19.1492	24.2963	26.4600 
614.741	0.1904	-0.1265	1.0117	-1.8567	-19.2590	24.4061	26.4600 
614.761	0.1963	-0.1177	0.9990	-2.1588	-19.2480	24.5270	26.4700 
614.780	0.1890	-0.1113	0.9893	-2.4445	-19.1437	24.6588	26.4700 
614.801	0.1777	-0.1094	0.9956	-2.7301	-18.9569	24.7797	26.4700 
614.821	0.1758	-0.1113	0.9902	-3.0817	-18.7207	24.9115	26.4700 
614.840	0.1553	-0.1182	1.0161	-3.5156	-18.4021	25.0598	26.4700 
614.863	0.1484	-0.1274	1.0049	-4.0375	-18.0396	25.2356	26.4700 
614.880	0.1577	-0.1401	1.0020	-4.6692	-17.6550	25.4114	26.4400 
614.927	0.1499	-0.1670	1.0107	-5.4492	-17.2321	25.6201	26.4600 
614.930	0.1450	-0.1641	0.9912	-6.3281	-16.7102	25.8344	26.4500 
614.940	0.1431	-0.1621	0.9819	-7.3059	-16.1060	26.0376	26.4600 
614.960	0.1216	-0.1899	1.0039	-8.3441	-15.4248	26.2079	26.4500 
614.980	0.1099	-0.2432	1.0176	-9.3878	-14.7272	26.2958	26.4800 
615.000	0.1030	-0.2627	1.0190	-10.3107	-14.0460	26.2793	26.4600 
615.019	0.0967	-0.2622	1.0332	-10.9149	-13.4198	26.1639	26.4700 
615.040	0.1030	-0.2446	1.0454	-11.4258	-12.8925	26.0376	26.4600 
615.061	0.0835	-0.2407	1.0596	-12.2223	-12.3761	25.9497	26.4600 
615.079	0.0918	-0.1987	1.0352	-13.4528	-11.8433	25.9387	26.4800 
615.116	0.0894	0.0884	1.0972	-15.2710	-11.3599	26.1420	26.4600 
615.119	-0.0039	0.3984	1.4639	-18.4900	-11.0138	26.9495	26.4900 
615.139	0.0518	0.2251	1.9390	-24.8676	-10.7336	28.3942	26.4900 
615.159	0.6719	-0.0713	1.7661	-36.1780	-10.6732	30.4926	26.4800 
615.180	0.5342	0.1382	2.4712	-48.1641	-9.2560	32.1130	26.4700 
615.199	0.5186	0.6382	3.4824	-52.9486	-5.7623	31.1847	26.4600 
615.220	0.7632	0.6104	1.1177	-51.7676	-4.0430	31.9867	26.4600 
615.239	0.8555	0.3247	0.4077	-48.9551	-3.5266	32.9260	26.4800 
615.259	0.8608	0.2588	0.7666	-46.0162	-3.2849	32.8052	26.4600 
615.308	0.5542	0.1880	1.2139	-42.2534	-3.5596	31.7450	26.4600 
615.311	0.3345	0.0596	1.2178	-37.4414	-4.4769	30.5310	26.4500 
615.318	0.0146	-0.1777	1.0737	-31.8109	-5.7733	29.3225	26.4300 
615.338	-0.1748	-0.3008	0.9990	-25.9552	-6.9269	28.2404	26.4400 
615.358	-0.2368	-0.4683	1.1440	-20.2478	-7.9926	27.6855	26.4300 
615.378	-0.1475	-0.5269	1.2422	-14.8151	-9.0692	27.6196	26.4300 
615.398	-0.1030	-0.5400	1.3228	-9.5636	-10.1404	27.7899	26.4300 
615.418	-0.0859	-0.5625	1.4072	-4.5264	-11.2500	27.9382	26.4400 
615.438	-0.0459	-0.6060	1.5332	0.1648	-12.5409	28.0426	26.4200 
615.457	-0.0176	-0.7065	1.6626	4.7571	-13.8867	28.0316	26.4200 
615.479	0.0049	-0.8008	1.6787	9.1956	-15.1886	28.0481	26.4300 
615.497	0.1816	-0.9604	1.6802	13.3594	-16.5674	28.1964	26.4100 
615.550	0.3306	-1.1226	1.5635	17.2925	-18.1329	28.2953	26.4200 
615.553	0.1890	-1.3423	1.0957	21.0938	-19.7699	27.7679	26.4000 
615.557	-0.0713	-1.5938	0.8071	24.6478	-21.3629	26.3177	26.4100 
615.577	-0.8525	-2.3062	0.2817	27.4219	-22.5604	24.5325	26.4100 
615.597	-0.8486	-2.4668	-0.6655	28.5535	-24.1479	23.3624	26.4000 
615.617	-0.5396	-0.9185	0.5830	25.5487	-24.1809	24.4611	26.4000 
615.636	-0.1226	0.7109	1.2622	22.0441	-21.3245	25.5212	26.3900 
615.657	-0.2632	-0.1221	1.3960	17.5562	-18.9679	26.7517	26.3800 
615.677	-0.7993	-0.0337	1.7705	13.1836	-17.7924	26.8506	26.3700 
615.696	1.1831	-1.4224	2.3550	8.0530	-18.1879	27.7844	26.4100 
615.737	-0.3955	-0.1069	1.9551	4.3506	-19.1162	27.6691	26.4200 
615.739	0.0210	-0.0791	1.2935	2.1039	-19.7644	27.6196	26.4400 
615.756	0.1362	-0.0957	1.1250	0.8899	-19.7369	27.5977	26.4400 
615.776	0.1445	-0.1011	1.0649	0.1318	-19.6216	27.6526	26.4300 
615.796	0.1177	-0.0957	1.0596	-0.4175	-19.5447	27.7020	26.4600 
615.816	0.1265	-0.0967	1.0508	-0.9393	-19.5447	27.6910	26.4500 
615.836	0.1587	-0.1113	1.0293	-1.4996	-19.6216	27.7075	26.4400 
615.855	0.1626	-0.1133	1.0112	-2.0215	-19.6875	27.7789	26.4400 
615.878	0.1738	-0.1343	1.0200	-2.4829	-19.7205	27.8723	26.4500 
615.925	0.1748	-0.1172	0.9854	-2.8400	-19.6436	27.9657	26.4600 
615.926	0.1831	-0.1172	0.9849	-3.2080	-19.4952	28.0920	26.4500 
615.935	0.1680	-0.1421	1.0151	-3.6090	-19.2371	28.2349	26.4400 
615.954	0.1611	-0.1426	1.0146	-3.9661	-18.9569	28.3722	26.4600 
615.975	0.1616	-0.1294	0.9912	-4.2847	-18.6713	28.5205	26.4300 
615.995	0.1484	-0.1294	1.0020	-4.6692	-18.3142	28.6908	26.4300 
616.015	0.1299	-0.1792	1.0337	-5.1855	-17.8528	28.8556	26.4400 
616.040	0.1265	-0.1704	1.0200	-5.7898	-17.3254	28.9819	26.4500 
616.054	0.1313	-0.1733	1.0034	-6.5369	-16.7926	29.0918	26.4500 
616.074	0.1274	-0.1729	0.9946	-7.3663	-16.2762	29.2072	26.4400 
616.094	0.1294	-0.1729	0.9795	-8.2782	-15.7434	29.3390	26.4400 
616.114	0.1035	-0.2012	0.9990	-9.2670	-15.1501	29.4818	26.4400 
616.166	0.0869	-0.2539	1.0181	-10.2832	-14.5404	29.5532	26.4300 
616.168	0.0869	-0.2603	1.0142	-11.0852	-13.9526	29.5093	26.4400 
616.174	0.0967	-0.2598	1.0229	-11.6400	-13.4308	29.3884	26.4600 
616.194	0.1055	-0.2690	1.0278	-12.0959	-12.9913	29.2566	26.4500 
616.214	0.0908	-0.2246	1.0371	-12.7057	-12.5244	29.2126	26.4600 
616.234	0.0576	-0.2441	1.0435	-13.6450	-12.0245	29.2291	26.4600 
616.253	0.0835	-0.0415	1.0518	-15.2216	-11.5137	29.4489	26.4600 
616.274	0.0781	-0.1050	1.1123	-17.6495	-11.0797	30.0586	26.4700 
616.292	0.1016	0.2690	2.0347	-22.5879	-10.9149	31.7615	26.4800 
616.313	0.3247	-0.0488	1.7344	-31.7340	-10.4919	34.1785	26.4600 
616.363	0.4756	-0.0488	1.3735	-43.6047	-9.1626	36.5240	26.4500 
616.365	0.1318	-0.9482	4.0439	-53.2837	-5.4822	36.9305	26.4600 
616.373	0.9580	0.5464	2.1592	-54.4318	-2.8235	37.5897	26.4600 
616.393	1.0464	0.3730	0.5908	-51.8170	-1.9171	39.2981	26.4500 
616.413	0.9702	0.0938	0.4893	-48.2684	-2.1588	39.8859	26.4500 
616.433	0.7661	0.0869	0.9419	-44.6100	-3.0707	39.3970	26.4300 
616.452	0.3052	0.0156	1.2256	-40.0726	-4.8230	38.2928	26.4300 
616.473	0.0122	-0.1030	1.2183	-34.6344	-6.7950	36.8481	26.4300 
616.493	-0.4131	-0.2324	1.0171	-28.6578	-8.5474	35.3870	26.4100 
616.512	-0.5522	-0.3081	0.9644	-22.6263	-9.9481	34.2609	26.4200 
616.550	-0.4312	-0.4014	1.1577	-17.0947	-10.9753	33.9423	26.4300 
616.552	-0.2949	-0.4438	1.3408	-12.0026	-11.7334	34.1016	26.4200 
616.572	-0.1025	-0.4810	1.4678	-7.1466	-12.3651	34.5135	26.4100 
616.592	0.1191	-0.5156	1.4692	-2.4390	-13.1836	34.8102	26.4000 
616.612	0.1006	-0.5625	1.5088	2.0874	-14.1614	34.7607	26.4100 
616.632	0.1211	-0.6772	1.6538	6.3885	-15.3040	34.5026	26.4000 
616.651	0.2383	-0.7324	1.6465	10.4755	-16.5784	34.1785	26.3900 
616.673	0.4204	-0.8818	1.5776	14.3921	-17.7100	33.5797	26.4000 
616.691	0.3467	-0.9976	1.3433	18.3197	-18.6053	32.3877	26.4000 
616.739	-0.1289	-1.1997	0.9116	22.1265	-19.4623	30.6299	26.4000 
616.742	-0.4707	-1.4302	0.7231	25.3290	-20.2753	28.7128	26.4000 
616.751	-1.0620	-1.9395	0.4424	27.4988	-21.4398	27.2626	26.3800 
616.771	-0.7930	-2.3477	-0.3247	28.1195	-23.3734	26.9055	26.3900 
616.791	-0.3999	-1.0083	0.1899	24.8895	-23.6755	28.7952	26.3800 
616.811	0.1978	0.5239	1.2266	20.9564	-21.2036	30.5145	26.3800 
616.831	0.5083	-0.2451	1.3047	16.3092	-19.5392	32.4811	26.3700 
616.851	-0.9697	-0.0854	1.8101	12.2717	-18.3032	32.2833	26.3700 
616.870	1.3105	-1.6123	3.0283	7.9541	-18.6713	32.7448	26.3700 
616.891	-0.1069	-0.0513	1.5366	4.3671	-19.4897	33.1512	26.3900 
616.910	0.1660	-0.1338	1.2764	2.1313	-20.1544	33.1073	26.4200 
616.933	0.0908	-0.0840	1.2051	0.7086	-20.3741	33.0634	26.4200 
616.978	0.0923	-0.0991	1.1372	0.0494	-20.2972	33.0414	26.4200 
616.980	0.1021	-0.0718	1.0815	-0.1703	-20.2423	32.9865	26.4000 
616.990	0.1792	-0.0737	1.0034	-0.3406	-20.3137	32.9260	26.4300 
617.010	0.1440	-0.0498	0.9980	-0.4559	-20.3577	32.8381	26.4200 
617.030	0.1362	-0.0439	0.9863	-0.5383	-20.3192	32.7063	26.4200 
617.050	0.1528	-0.0552	0.9917	-0.5273	-20.2423	32.5690	26.4300 
617.069	0.1665	-0.0454	0.9702	-0.4449	-20.1270	32.4261	26.4200 
617.092	0.1973	-0.0234	0.9390	-0.4779	-20.0226	32.3273	26.4100 
617.109	0.1792	-0.0562	0.9736	-0.7965	-19.9512	32.3218	26.4300 
617.129	0.1978	-0.1025	1.0283	-1.1810	-19.9127	32.3767	26.4300 
617.164	0.1670	-0.0820	1.0186	-1.4941	-19.8468	32.4207	26.4300 
617.169	0.1650	-0.0972	1.0273	-1.8127	-19.7864	32.4646	26.4400 
617.189	0.1719	-0.0713	0.9971	-2.1533	-19.6985	32.5031	26.4300 
617.209	0.1846	-0.0820	1.0054	-2.6093	-19.6106	32.5854	26.4200 
617.229	0.1787	-0.0850	0.9956	-3.2245	-19.4238	32.7228	26.4200 
617.248	0.1680	-0.0903	0.9976	-3.9221	-19.1492	32.8986	26.4200 
617.269	0.1450	-0.0933	0.9922	-4.7241	-18.8251	33.1073	26.4200 
617.288	0.1401	-0.1094	0.9824	-5.6140	-18.4186	33.3820	26.4200 
617.308	0.1206	-0.1670	1.0200	-6.6083	-17.8583	33.6182	26.4200 
617.358	0.1069	-0.1787	1.0200	-7.7069	-17.1332	33.7555	26.4100 
617.361	0.1265	-0.1978	1.0210	-8.9044	-16.3586	33.7830	26.4200 
617.370	0.1167	-0.2192	1.0249	-10.1129	-15.6061	33.7445	26.4300 
617.388	0.1182	-0.2573	1.0371	-11.1566	-14.8975	33.6841	26.4400 
617.408	0.1245	-0.2227	1.0815	-12.0135	-14.2548	33.6237	26.4300 
617.428	0.0928	-0.2402	1.1055	-13.2330	-13.7384	33.6566	26.4400 
617.448	0.1060	-0.1118	1.0591	-15.0073	-13.2990	33.8379	26.4400 
617.468	0.0693	-0.1924	1.1772	-17.7100	-12.9309	34.2499	26.4300 
617.487	0.0117	0.4868	1.6978	-21.8683	-12.5903	35.0903	26.4500 
617.507	0.4897	-0.0024	1.9209	-31.2396	-12.6343	36.8262	26.4600 
617.544	0.7241	0.1318	1.7007	-43.6981	-12.7661	38.9795	26.4300 
617.547	0.6782	0.0054	4.9048	-52.4432	-9.7064	38.0017	26.4200 
617.567	0.6953	0.8960	2.6265	-53.3881	-7.2455	36.5790	26.4200 
617.587	0.6831	0.5703	0.5591	-50.5151	-6.4984	36.6888	26.4200 
617.607	0.7412	0.4360	0.6714	-47.0270	-6.1359	36.6064	26.4100 
617.626	0.6816	0.2910	1.0244	-43.1104	-6.1084	35.9033	26.4100 
617.646	0.4966	0.1694	1.1475	-38.3807	-6.5314	34.8212	26.4000 
617.667	0.1270	-0.0107	1.0908	-32.6349	-7.4268	33.5083	26.4000 
617.686	-0.1309	-0.1387	1.0620	-26.4990	-8.3936	32.1899	26.4000 
617.709	-0.2632	-0.2925	1.1274	-20.3522	-9.3274	31.2671	26.4000 
617.726	-0.1626	-0.4736	1.3164	-14.4086	-10.2118	30.9320	26.3800 
617.746	-0.0576	-0.5400	1.3818	-8.6792	-11.0358	30.9155	26.3900 
617.782	-0.0376	-0.5947	1.5122	-3.1091	-11.9641	30.8386	26.3800 
617.786	-0.0137	-0.6563	1.6323	2.1698	-13.1561	30.6244	26.3600 
617.808	0.0942	-0.8374	1.8770	7.2070	-14.3372	30.2509	26.3800 
617.826	0.1328	-0.9683	1.9185	12.2003	-15.2435	29.7949	26.3700 
617.845	0.2373	-1.2939	1.7095	17.0013	-16.1389	29.4653	26.3700 
617.866	0.1772	-1.5142	1.4795	21.5552	-17.1606	29.0424	26.3500 
617.885	-0.0991	-2.0947	0.6719	25.7025	-18.3746	28.0371	26.3600 
617.908	-0.6870	-2.4727	0.1108	28.4326	-19.2920	26.8011	26.3500 
617.925	-1.2441	-3.1782	-0.7847	28.4161	-20.2094	26.5375	26.3400 
617.968	-1.0098	-1.4810	-0.8589	25.0983	-19.1876	27.7460	26.3400 
617.971	0.8291	-0.1138	2.1255	19.8743	-17.7704	29.7180	26.3400 
617.985	0.3667	-0.3911	1.2773	14.5953	-17.1936	31.8768	26.3300 
618.005	0.5942	-1.5586	3.0918	9.1241	-17.1387	32.6733	26.3500 
618.025	-0.2280	-0.2520	1.9268	4.4659	-18.0121	33.0908	26.3800 
618.044	0.0605	-0.0923	1.2461	2.2083	-19.1327	33.0634	26.3900 
618.065	0.1533	-0.0825	1.1113	1.2964	-19.5776	33.0029	26.4100 
618.084	0.1313	-0.0454	1.0347	0.9174	-19.6326	32.9590	26.4000 
618.104	0.1211	-0.0483	1.0200	0.4559	-19.6326	32.9645	26.4000 
618.167	0.1479	-0.0928	1.0522	-0.0385	-19.6655	33.0084	26.3800 
618.168	0.1587	-0.0889	1.0332	-0.4120	-19.7040	33.0194	26.4000 
618.169	0.1704	-0.0894	1.0195	-0.8130	-19.8029	33.0469	26.3800 
618.184	0.1816	-0.0874	0.9854	-1.3129	-19.9072	33.1238	26.3800 
618.204	0.1729	-0.0957	0.9976	-1.7853	-20.0226	33.2446	26.4000 
618.224	0.2002	-0.1318	1.0146	-2.2961	-20.0940	33.4094	26.4000 
618.244	0.1855	-0.1206	1.0059	-2.7411	-20.0171	33.5742	26.4000 
618.264	0.1836	-0.1221	1.0029	-3.1366	-19.8798	33.7445	26.4000 
618.283	0.1831	-0.1230	0.9966	-3.4442	-19.6820	33.9038	26.3900 
618.305	0.1689	-0.1206	1.0029	-3.8123	-19.4073	34.0576	26.4000 
618.354	0.1641	-0.1333	1.0132	-4.2572	-19.0613	34.2334	26.4000 
618.357	0.1484	-0.1362	1.0146	-4.8285	-18.6823	34.4312	26.3900 
618.364	0.1606	-0.1597	0.9922	-5.5261	-18.2813	34.6619	26.4100 
618.383	0.1606	-0.1553	0.9819	-6.3501	-17.7979	34.9091	26.3900 
618.406	0.1450	-0.1641	0.9873	-7.3004	-17.1826	35.1508	26.3800 
618.423	0.1284	-0.1792	0.9883	-8.3990	-16.4960	35.3815	26.3900 
618.443	0.0991	-0.2173	1.0107	-9.5581	-15.7709	35.5353	26.4000 
618.462	0.0938	-0.2881	1.0356	-10.6732	-15.0787	35.5682	26.3900 
618.482	0.1069	-0.2695	1.0273	-11.3763	-14.4525	35.4474	26.3900 
618.502	0.1304	-0.2388	1.0503	-11.8103	-13.8977	35.3101	26.4000 
618.523	0.0996	-0.2749	1.0640	-12.4420	-13.4198	35.2332	26.4000 
618.542	0.1167	-0.1743	1.0571	-13.4912	-12.9364	35.2826	26.4000 
618.601	0.0967	0.0244	1.0708	-15.1666	-12.3871	35.4694	26.4000 
618.603	0.1372	-0.0410	1.1270	-17.7155	-11.8597	36.0242	26.4000 
618.603	0.0552	0.1548	1.8936	-23.1482	-11.5686	37.5128	26.4200 
618.622	0.4805	-0.2344	1.8203	-32.7612	-11.1401	39.7650	26.4000 
618.642	0.5552	0.0552	1.6563	-44.6045	-9.6021	41.8634	26.4100 
618.662	0.4429	-0.9053	4.4224	-53.5638	-5.6525	41.4130	26.4000 
618.682	1.0054	0.6455	1.9102	-53.9703	-3.4662	41.2756	26.4000 
618.701	0.8989	0.5112	0.4688	-51.2128	-3.0048	41.9348	26.3900 
618.722	0.8574	0.2407	0.7563	-47.8015	-3.3728	41.7316	26.3900 
618.742	0.7627	0.1577	1.3022	-44.0826	-3.9496	40.6549	26.3900 
618.793	0.3574	0.0264	1.2261	-38.8531	-5.0977	39.0234	26.3800 
618.795	0.0898	-0.1157	1.0986	-32.6843	-6.4545	37.2382	26.3800 
618.801	-0.1963	-0.3140	1.0571	-26.3727	-7.8058	35.7056	26.3700 
618.821	-0.2559	-0.4067	1.0762	-20.1599	-9.0417	34.5575	26.3700 
618.840	-0.1602	-0.5044	1.1841	-14.3152	-10.0800	33.9313	26.3700 
618.861	-0.0806	-0.5098	1.3345	-8.8385	-10.9589	33.5303	26.3500 
618.881	-0.0723	-0.4922	1.4507	-3.6035	-11.7664	33.1348	26.3500 
618.900	-0.0845	-0.5088	1.4951	1.3403	-12.7386	32.7338	26.3600 
618.923	-0.0215	-0.5791	1.6328	5.8832	-13.7823	32.4976	26.3500 
618.940	0.1558	-0.7207	1.8955	10.2228	-14.7601	32.5140	26.3400 
618.982	0.2915	-0.8281	1.7925	14.4800	-15.8533	32.7283	26.3300 
618.984	0.4351	-1.0571	1.3896	18.5449	-17.2705	32.8711	26.3400 
619.000	0.2842	-1.1807	1.0938	22.3297	-18.9404	32.4481	26.3400 
619.020	-0.0225	-1.5161	0.9038	25.8728	-20.7092	30.8551	26.3400 
619.040	-0.5752	-2.0615	0.6401	28.8885	-21.5387	28.7622	26.3400 
619.060	-1.3193	-2.3423	-0.1787	30.4541	-22.2858	27.3999	26.3300 
619.080	-0.9072	-2.3086	-0.4360	28.3832	-22.9285	27.9767	26.3400 
619.100	-0.2842	0.5005	1.3872	24.2688	-20.5280	29.3994	26.3300 
619.121	0.5479	0.1396	0.8408	19.4568	-18.1000	31.7944	26.3000 
619.172	-0.6533	-0.1973	2.1138	14.6063	-16.3751	32.9865	26.3100 
619.173	-0.1753	-0.0396	2.0952	10.4425	-15.6995	32.9919	26.3100 
619.180	-0.2124	-0.2207	1.6582	6.2732	-16.0510	33.6841	26.3100 
619.200	0.2256	-0.1631	1.3369	3.0872	-16.9244	33.7335	26.3500 
619.219	0.1050	-0.0698	1.1904	1.3293	-18.0670	33.6566	26.3700 
619.239	0.0762	-0.0459	1.0840	0.5823	-18.7866	33.5742	26.3600 
619.259	0.1279	-0.0635	1.0171	0.1923	-19.1217	33.5413	26.3600 
619.279	0.1328	-0.0825	1.0425	-0.1978	-19.3359	33.4863	26.3600 
619.298	0.1260	-0.0835	1.0474	-0.6152	-19.5117	33.4204	26.3700 
619.318	0.1445	-0.0938	1.0381	-0.9833	-19.6106	33.3545	26.3700 
619.371	0.1626	-0.0879	0.9888	-1.2799	-19.6655	33.3270	26.3800 
619.376	0.1611	-0.0811	0.9888	-1.5106	-19.7040	33.3215	26.3700 
619.381	0.1846	-0.0693	0.9629	-1.7578	-19.7040	33.3380	26.3700 
619.398	0.1851	-0.0889	0.9912	-2.0874	-19.6765	33.3929	26.3700 
619.417	0.1719	-0.1206	1.0190	-2.5104	-19.4733	33.5028	26.3700 
619.438	0.1616	-0.1094	1.0156	-2.8784	-19.1931	33.6017	26.3800 
619.458	0.1450	-0.1030	1.0103	-3.2684	-18.8910	33.6896	26.3700 
619.477	0.1479	-0.1108	1.0156	-3.7683	-18.5834	33.7939	26.3700 
619.497	0.1372	-0.1201	1.0073	-4.4165	-18.2318	33.9587	26.3600 
619.517	0.1528	-0.1641	1.0156	-5.2350	-17.8033	34.1675	26.3700 
619.540	0.1377	-0.1519	0.9873	-6.2018	-17.2485	34.3488	26.3600 
619.557	0.1240	-0.1660	0.9873	-7.3444	-16.5729	34.5026	26.3700 
619.624	0.1079	-0.1909	0.9995	-8.5858	-15.8533	34.6014	26.3700 
619.626	0.1006	-0.2710	1.0342	-9.8877	-15.1611	34.6289	26.3700 
619.626	0.1040	-0.2607	1.0137	-10.9094	-14.5184	34.5355	26.3700 
619.637	0.1094	-0.2520	1.0234	-11.6510	-13.9032	34.3817	26.3800 
619.657	0.0962	-0.2798	1.0430	-12.3486	-13.3594	34.2279	26.3800 
619.676	0.0762	-0.2539	1.0532	-13.1342	-12.8375	34.1180	26.3800 
619.697	0.0781	-0.2280	1.0239	-14.2273	-12.3157	34.0137	26.3900 
619.716	0.1187	-0.0630	1.0693	-15.8093	-11.8268	34.1071	26.3800 
619.737	0.0234	0.2974	1.3721	-18.4076	-11.5741	34.8047	26.4000 
619.756	0.1133	0.4111	2.0806	-23.7909	-11.5137	36.3812	26.4000 
619.821	0.6304	-0.0542	1.8159	-35.0244	-11.1951	38.6279	26.3900 
619.823	0.5991	0.3374	1.8301	-48.0267	-9.8987	40.4462	26.3900 
619.823	0.6919	0.4512	4.6147	-55.6128	-6.0645	38.9520	26.3600 
619.836	0.8794	0.7012	2.2100	-55.6073	-3.8947	38.4686	26.3600 
619.856	0.8394	0.4346	0.3701	-52.2455	-3.4387	39.1388	26.3600 
619.876	0.8252	0.2988	0.5244	-48.4662	-3.7299	39.3970	26.3700 
619.896	0.6235	0.2046	1.0840	-44.2804	-4.5483	38.8971	26.3700 
619.916	0.3877	0.1240	1.1870	-39.2542	-5.9106	38.0017	26.3600 
619.938	0.0425	-0.0977	1.2241	-33.2227	-7.5861	36.6833	26.3600 
619.955	-0.2319	-0.2261	1.1919	-26.7462	-9.0692	35.1563	26.3500 
620.006	-0.4272	-0.4126	1.2793	-20.1434	-10.3436	34.0576	26.3500 
620.008	-0.3560	-0.5283	1.3633	-13.7714	-11.5631	33.5852	26.3300 
620.015	-0.2051	-0.6206	1.4839	-7.7838	-12.6892	33.6951	26.3300 
620.035	0.0122	-0.7070	1.6313	-2.1423	-13.7164	33.9862	26.3300 
620.055	0.0654	-0.7651	1.7505	3.2300	-14.8041	33.9917	26.3200 
620.075	-0.0176	-0.9053	1.9829	8.5529	-15.8862	33.6456	26.3200 
620.095	-0.0298	-1.0957	2.0054	13.7659	-16.8915	33.5303	26.3100 
620.115	0.0874	-1.4189	1.5005	18.7701	-18.2208	33.8489	26.3000 
620.136	0.0801	-1.6411	1.0791	23.3569	-19.8358	33.6841	26.3000 
620.154	-0.2886	-2.3120	0.4971	27.1417	-21.1871	32.5964	26.3200 
620.200	-0.9292	-2.8267	0.1001	29.6466	-22.2748	31.0803	26.3000 
620.202	-1.2397	-2.8813	-0.8745	28.8007	-23.1976	30.7343	26.3100 
620.214	-0.6245	-0.3535	0.9263	24.7083	-21.8793	31.9537	26.2900 
620.234	0.8296	-0.0811	1.0283	19.6820	-19.9182	34.5135	26.2800 
620.254	0.1831	-0.4570	1.5498	14.1339	-18.6877	36.8427	26.2800 
620.275	0.5874	-1.8584	3.5850	8.5913	-18.5394	37.5293	26.3000 
620.294	-0.2651	-0.1353	1.7754	3.9056	-20.1544	37.9962	26.3300 
620.314	0.1406	-0.1147	1.2520	1.9116	-21.1597	37.8589	26.3300 
620.334	0.1514	-0.0684	1.0967	1.0876	-21.3959	37.7820	26.3400 
620.388	0.1611	-0.0762	1.0547	0.6262	-21.3464	37.7435	26.3400 
620.391	0.1440	-0.0752	1.0386	0.1208	-21.2695	37.7765	26.3400 
620.392	0.1528	-0.0811	1.0396	-0.3021	-21.2091	37.8094	26.3600 
620.413	0.1426	-0.0811	1.0322	-0.6592	-21.1816	37.7985	26.3500 
620.433	0.1484	-0.0869	1.0239	-1.0217	-21.2146	37.7655	26.3400 
620.453	0.1665	-0.0967	1.0049	-1.3953	-21.2970	37.7655	26.3400 
620.473	0.1860	-0.0903	0.9878	-1.6589	-21.4178	37.7875	26.3400 
620.492	0.2031	-0.0889	0.9785	-1.9281	-21.5057	37.8479	26.3400 
620.513	0.2100	-0.0806	0.9604	-2.2687	-21.5002	37.9578	26.3400 
620.532	0.2031	-0.1152	0.9883	-2.6807	-21.3684	38.1281	26.3400 
620.578	0.1650	-0.1064	1.0161	-2.9993	-21.0992	38.2654	26.3400 
620.582	0.1587	-0.1235	1.0327	-3.3893	-20.8026	38.4027	26.3400 
620.592	0.1655	-0.1245	1.0171	-3.8452	-20.4840	38.5400	26.3600 
620.612	0.1772	-0.1147	0.9961	-4.3616	-20.1324	38.7103	26.3400 
620.632	0.1641	-0.1108	0.9795	-5.0043	-19.7424	38.9410	26.3500 
620.652	0.1553	-0.1382	0.9951	-5.8118	-19.2700	39.2102	26.3500 
620.672	0.1138	-0.1675	1.0107	-6.7841	-18.6548	39.4958	26.3400 
620.692	0.1099	-0.1768	1.0093	-7.8717	-17.9791	39.6771	26.3300 
620.712	0.1187	-0.2080	1.0122	-8.9923	-17.2980	39.7430	26.3400 
620.731	0.1294	-0.2495	1.0142	-10.0085	-16.6168	39.6936	26.3400 
620.752	0.1289	-0.2520	1.0161	-10.8215	-15.9137	39.5728	26.3600 
620.771	0.1333	-0.2441	1.0435	-11.3269	-15.2875	39.4464	26.3700 
620.815	0.1240	-0.2329	1.0684	-11.8433	-14.7656	39.3860	26.3500 
620.818	0.1108	-0.1943	1.0815	-12.8815	-14.2548	39.4519	26.3700 
620.831	0.1279	-0.0952	1.0278	-14.5129	-13.6615	39.6332	26.3400 
620.850	0.1450	-0.2358	1.0967	-17.1332	-13.0573	40.1385	26.3600 
620.870	0.1401	0.2886	2.0664	-21.9342	-12.5958	41.2372	26.3700 
620.891	0.5420	0.0869	1.8774	-30.8936	-12.0135	42.9895	26.3800 
620.910	0.6484	0.0786	1.8184	-42.8906	-10.0580	44.3024	26.3600 
620.932	0.6875	-0.9937	4.4199	-52.3279	-5.6525	42.5116	26.3300 
620.950	0.9717	0.7910	2.1191	-53.0255	-3.5815	41.1328	26.3300 
621.003	0.8340	0.6396	0.6953	-50.4932	-3.5706	41.2042	26.3300 
621.005	0.6270	0.4360	0.7490	-47.0325	-4.2682	40.6714	26.3300 
621.009	0.4688	0.3604	1.2266	-43.2312	-4.9329	39.4684	26.3400 
621.036	0.2334	0.2061	1.2681	-38.1775	-5.7953	38.1171	26.3300 
621.050	0.0942	0.0337	1.0513	-32.2449	-6.8060	36.8866	26.3300 
621.070	-0.1011	-0.1929	1.0591	-26.0596	-7.8552	35.9473	26.3300 
621.090	-0.1782	-0.3096	1.2061	-19.9017	-8.8989	35.3210	26.3000 
621.110	-0.1665	-0.4639	1.3481	-13.8922	-9.9811	35.1398	26.3100 
621.129	-0.1055	-0.5459	1.4673	-8.1079	-11.1182	35.1892	26.3200 
621.149	0.0132	-0.6367	1.5918	-2.6038	-12.3926	35.2881	26.3100 
621.199	0.0317	-0.6997	1.7041	2.6422	-13.8043	35.1892	26.3000 
621.203	0.0493	-0.8965	1.9458	7.6575	-15.1996	34.8212	26.3000 
621.209	0.0464	-1.1606	1.9956	12.6782	-16.4850	34.4751	26.2900 
621.229	0.1104	-1.3633	1.7197	17.6440	-18.0011	34.4751	26.3000 
621.249	-0.0171	-1.7051	1.1445	22.3077	-19.7040	34.1840	26.2800 
621.269	-0.2153	-2.0454	0.6567	26.2299	-21.3794	33.2886	26.2900 
621.289	-0.5845	-2.4966	-0.4150	28.7018	-23.1152	32.2449	26.2800 
621.309	-0.4429	-3.0894	-0.7754	27.9382	-24.6313	31.8988	26.2800 
621.328	-0.2646	-0.2568	1.1235	24.1589	-23.3075	32.4261	26.2900 
621.348	-0.3359	0.4028	1.3613	20.1544	-20.5609	32.1295	26.2700 
621.369	-1.2524	-0.0693	1.5562	15.7654	-18.4515	31.6956	26.2700 
621.387	0.5967	0.0459	3.1655	10.2502	-18.4351	31.8494	26.2800 
621.444	-0.0508	-0.2397	1.9556	4.8395	-20.2148	32.4976	26.3200 
621.446	0.2847	-0.0659	1.1069	3.4277	-20.7257	32.2998	26.3200 
621.448	0.1660	-0.1089	1.1084	2.6038	-20.4950	32.1844	26.3100 
621.473	0.1377	-0.1182	1.1069	2.0215	-20.2148	32.1350	26.3100 
621.487	0.1396	-0.0928	1.0469	1.6095	-19.9182	32.0581	26.3100 
621.508	0.1143	-0.1128	1.0786	1.1481	-19.6985	31.9537	26.3300 
621.528	0.1475	-0.0952	1.0386	0.7196	-19.5776	31.7944	26.3200 
621.547	0.1689	-0.1284	1.0498	0.2472	-19.4952	31.6956	26.3100 
621.567	0.1494	-0.1084	1.0088	-0.1758	-19.3579	31.6351	26.3100 
621.588	0.1528	-0.1035	1.0039	-0.5109	-19.1986	31.5747	26.3200 
621.633	0.1597	-0.1064	0.9946	-0.8624	-19.0118	31.5472	26.3100 
621.635	0.1665	-0.1089	0.9922	-1.1865	-18.8031	31.5582	26.3300 
621.647	0.1416	-0.1069	1.0049	-1.5271	-18.5339	31.6022	26.3100 
621.666	0.1445	-0.1099	0.9995	-1.8951	-18.2593	31.6846	26.3200 
621.687	0.1401	-0.1416	1.0107	-2.4554	-17.8967	31.8439	26.3200 
621.707	0.1196	-0.1221	1.0049	-3.0707	-17.4573	31.9812	26.3200 
621.726	0.0972	-0.1426	1.0200	-3.8837	-16.9354	32.0581	26.3100 
621.746	0.1074	-0.1597	1.0137	-4.9658	-16.4246	32.1130	26.3200 
621.766	0.1060	-0.1987	1.0161	-6.2952	-15.9247	32.1790	26.3200 
621.820	0.1045	-0.2202	1.0083	-7.7783	-15.3918	32.2449	26.3200 
621.822	0.0957	-0.2554	1.0117	-9.1791	-14.8151	32.2559	26.3200 
621.826	0.0850	-0.2646	1.0132	-10.2063	-14.2273	32.1680	26.3100 
621.846	0.0747	-0.2886	1.0112	-10.8765	-13.6615	31.9647	26.3300 
621.866	0.0815	-0.2700	1.0234	-11.2994	-13.1177	31.6736	26.3300 
621.886	0.0820	-0.2378	1.0313	-11.7773	-12.6123	31.3989	26.3300 
621.906	0.0464	-0.2856	0.9849	-12.6233	-12.1893	31.2451	26.3400 
621.925	0.1177	-0.0444	1.0737	-14.0680	-11.8048	31.3330	26.3400 
621.947	0.1255	-0.0088	1.1406	-16.4740	-11.4807	31.9757	26.3400 
621.966	0.1318	-0.0010	1.9385	-21.4948	-11.2830	33.5797	26.3400 
622.008	0.3984	-0.0552	1.8774	-31.2616	-10.4590	35.8978	26.3400 
622.012	0.5400	0.0674	1.8604	-43.6157	-8.0530	37.6392	26.3200 
622.025	0.1919	-0.8525	4.7451	-52.0917	-3.6145	37.0294	26.3100 
622.044	1.1182	0.6289	1.7266	-52.3828	-1.7139	37.9742	26.3100 
622.065	1.1108	0.4785	0.5317	-49.8724	-1.5820	39.4958	26.3100 
622.085	0.8228	0.3296	0.6626	-46.6864	-2.3291	39.4244	26.3100 
622.105	0.5713	0.2739	1.0879	-43.1268	-3.5596	38.4631	26.3000 
622.125	0.1973	0.1265	1.3604	-38.3917	-5.4163	37.2382	26.2800 
622.144	-0.0415	-0.0195	1.2808	-32.6624	-7.4048	35.8264	26.3000 
622.164	-0.3896	-0.2139	1.1401	-26.2903	-9.0912	34.4202	26.2900 
622.184	-0.5278	-0.3286	1.1846	-19.7974	-10.4700	33.3380	26.2800 
622.204	-0.4800	-0.4521	1.3047	-13.5681	-11.6730	33.0139	26.2800 
622.251	-0.3086	-0.4946	1.4185	-7.6794	-12.8046	33.1787	26.2800 
622.253	-0.0913	-0.5615	1.6763	-2.1588	-13.7769	33.4753	26.2700 
622.264	-0.0269	-0.6479	1.8354	3.2355	-14.7876	33.5083	26.2600 
622.284	0.0879	-0.8833	1.8955	8.6133	-15.8038	33.1348	26.2600 
622.305	0.1206	-1.0811	1.8091	13.8647	-16.6443	32.5800	26.2600 
622.324	0.0723	-1.3579	1.4883	18.6658	-17.5946	32.0691	26.2400 
622.344	0.0176	-1.5767	1.2163	23.1372	-18.8855	31.3879	26.2400 
622.364	-0.2319	-1.8555	0.8452	27.0538	-19.9347	30.1575	26.2500 
622.383	-1.0464	-2.4141	0.2690	29.9048	-20.8191	28.9435	26.2500 
622.404	-0.8740	-2.2192	-0.7651	30.8936	-22.4670	28.5040	26.2500 
622.439	-0.4756	-1.1533	0.2881	27.6416	-22.8516	30.1959	26.2500 
622.443	0.1538	0.6606	1.5527	23.6316	-20.8026	31.8768	26.2400 
622.464	0.4380	-0.1899	1.2290	18.8361	-19.6436	33.8544	26.2200 
622.483	-0.7729	0.0288	1.5796	14.4635	-19.1052	33.7280	26.2200 
622.502	1.0698	-1.5059	2.6104	8.7067	-20.0885	34.4092	26.2400 
622.525	-0.2783	-0.1206	2.0762	4.7571	-21.6650	34.3048	26.2700 
622.543	0.1113	-0.1060	1.2378	3.0762	-22.1979	34.0302	26.2800 
622.563	0.1738	-0.0820	1.1055	2.4335	-22.0660	33.7390	26.3000 
622.584	0.1343	-0.0742	1.0503	1.9720	-21.8573	33.5028	26.2800 
622.625	0.1348	-0.0669	1.0664	1.6754	-21.7859	33.2831	26.2800 
622.628	0.1450	-0.0781	1.0498	1.3129	-21.7859	33.0688	26.2900 
622.642	0.1680	-0.0732	1.0249	0.9668	-21.8353	32.8271	26.2900 
622.662	0.1733	-0.0845	1.0049	0.5713	-21.9067	32.6349	26.2900 
622.682	0.1787	-0.0859	0.9858	0.1648	-22.0001	32.4921	26.2800 
622.702	0.1899	-0.0806	0.9727	-0.1758	-22.0990	32.3822	26.2900 
622.722	0.2183	-0.1055	0.9937	-0.5658	-22.1759	32.2998	26.2800 
622.743	0.2148	-0.1157	0.9946	-0.9943	-22.0990	32.2559	26.3000 
622.762	0.2070	-0.1211	1.0010	-1.3843	-21.9122	32.2284	26.2800 
622.781	0.1846	-0.1147	1.0049	-1.7468	-21.6321	32.2064	26.3000 
622.802	0.1660	-0.1240	1.0259	-2.1588	-21.2970	32.1680	26.2800 
622.821	0.1621	-0.1250	1.0200	-2.6147	-20.9564	32.1240	26.2800 
622.876	0.1787	-0.1416	1.0127	-3.1201	-20.5884	32.0966	26.2800 
622.878	0.1855	-0.1387	0.9863	-3.6804	-20.1709	32.0746	26.2800 
622.881	0.1865	-0.1377	0.9780	-4.2957	-19.7424	32.1021	26.2800 
622.901	0.1450	-0.1509	0.9932	-5.0372	-19.1711	32.1844	26.2900 
622.921	0.1230	-0.1704	1.0098	-5.9052	-18.5120	32.2559	26.2900 
622.941	0.1147	-0.1885	1.0073	-6.8280	-17.8363	32.2614	26.2800 
622.961	0.1235	-0.2085	1.0151	-7.7344	-17.1991	32.1790	26.3000 
622.981	0.1304	-0.2739	1.0249	-8.6682	-16.6058	32.0361	26.3100 
623.000	0.1216	-0.2515	1.0122	-9.3658	-16.0291	31.8329	26.3000 
623.020	0.1274	-0.2393	1.0220	-9.8438	-15.5017	31.6132	26.3000 
623.066	0.1113	-0.2358	1.0347	-10.4205	-15.0018	31.4264	26.2900 
623.068	0.0894	-0.2642	1.0479	-11.2830	-14.4855	31.2726	26.2900 
623.080	0.0908	-0.2148	1.0439	-12.4640	-13.9142	31.1517	26.2900 
623.100	0.1064	-0.0654	1.0664	-14.0845	-13.3594	31.1682	26.2900 
623.120	0.1372	-0.2075	1.1182	-16.6388	-12.9309	31.6681	26.3000 
623.140	0.1841	0.2539	1.9893	-21.5607	-12.6782	32.9590	26.3100 
623.160	0.4126	0.0122	1.9219	-31.2067	-12.2498	34.8431	26.2900 
623.180	0.6187	0.0981	1.4829	-43.3850	-11.1401	36.6174	26.3000 
623.199	0.7900	-1.2866	3.9365	-52.8827	-7.6245	35.6726	26.2900 
623.254	0.9395	0.5459	2.1768	-54.1077	-5.6909	34.2114	26.2900 
623.258	0.7173	0.5044	0.6860	-51.8225	-5.5481	33.5797	26.2900 
623.259	0.5449	0.2954	0.5156	-48.4497	-6.1359	32.6733	26.2700 
623.278	0.5220	0.2227	0.8916	-44.9835	-6.6632	31.3605	26.2700 
623.298	0.3770	0.0762	1.2959	-40.5450	-7.1741	29.7675	26.2800 
623.319	0.2339	-0.0322	1.1348	-35.0079	-7.8113	28.1635	26.2600 
623.339	-0.0039	-0.2412	0.9116	-28.9380	-8.5858	26.8176	26.2600 
623.358	-0.0586	-0.3677	0.9985	-22.9449	-9.4592	25.8234	26.2500 
623.378	-0.0371	-0.5220	1.2197	-17.2046	-10.5249	25.2301	26.2500 
623.399	-0.0396	-0.5898	1.2852	-11.6235	-11.6016	24.7302	26.2500 
623.443	-0.0083	-0.6538	1.4766	-6.2512	-12.6508	24.2853	26.2400 
623.445	0.0640	-0.6631	1.5933	-1.1426	-13.8208	23.8788	26.2400 
623.458	0.1284	-0.7300	1.8550	3.7958	-15.0732	23.3459	26.2400 
623.478	0.1260	-0.7847	1.9727	8.8110	-16.1115	22.6263	26.2500 
623.498	0.0952	-0.8442	1.8872	13.8922	-16.9299	21.8903	26.2500 
623.518	0.1826	-0.9902	1.4795	18.6603	-18.0011	21.8573	26.2300 
623.538	0.1216	-1.0713	1.1084	23.1152	-19.6436	22.0496	26.2200 
623.558	-0.0601	-1.3267	0.8687	27.0428	-21.5662	21.4453	26.2400 
623.577	-0.3760	-1.7026	0.7114	30.3223	-22.8461	20.3302	26.2200 
623.636	-1.2109	-2.2349	-0.1772	32.7118	-23.7964	19.2480	26.2100 
623.641	-1.2124	-2.0947	-0.8213	32.3383	-24.7302	19.4843	26.2200 
623.641	-0.5171	-0.2188	0.2773	28.2568	-22.8790	21.4288	26.2100 
623.657	0.4761	0.2476	0.2056	22.6978	-21.1761	24.5929	26.2000 
623.677	2.3252	2.5298	1.5879	14.8480	-20.7257	26.8451	26.2200 
623.697	0.0708	-2.0166	3.0098	2.5983	-22.9944	29.8334	26.2200 
623.717	-0.1465	-0.3081	1.3340	0.6482	-23.2526	29.5258	26.2500 
623.737	0.1343	0.0049	0.9126	0.4669	-23.5602	29.1138	26.2300 
623.757	0.2939	-0.1436	0.9873	0.2032	-24.0656	28.9215	26.2500 
623.776	0.2427	-0.1221	1.0151	-0.2087	-24.1864	28.9325	26.2500 
623.796	0.1685	-0.1509	1.0352	-0.7855	-24.1205	29.0149	26.2500 
623.816	0.1455	-0.1323	1.0400	-1.4667	-23.9941	29.0314	26.2500 
623.836	0.2012	-0.1465	1.0029	-2.1094	-23.8843	29.0588	26.2600 
623.874	0.2007	-0.1758	0.9946	-2.7905	-23.7415	29.1357	26.2500 
623.877	0.1860	-0.1914	1.0039	-3.2849	-23.5162	29.2236	26.2300 
623.896	0.1807	-0.1968	1.0171	-3.6200	-23.2745	29.2676	26.2400 
623.916	0.1812	-0.1963	1.0117	-3.8068	-23.0383	29.2456	26.2400 
623.936	0.1846	-0.1797	1.0039	-3.8452	-22.8351	29.1797	26.2400 
623.956	0.1880	-0.1616	0.9888	-3.7903	-22.6538	29.0808	26.2500 
623.976	0.1860	-0.1592	0.9897	-3.7244	-22.4780	28.9929	26.2400 
623.996	0.1724	-0.1709	1.0117	-3.6475	-22.2803	28.8995	26.2500 
624.015	0.1729	-0.1792	1.0278	-3.5651	-22.0880	28.7842	26.2400 
624.062	0.1689	-0.1855	1.0488	-3.4442	-21.9287	28.6249	26.2300 
624.064	0.1963	-0.1406	0.9893	-3.2190	-21.8353	28.4601	26.2300 
624.076	0.1855	-0.1265	0.9805	-2.9993	-21.7200	28.3173	26.2300 
624.095	0.1753	-0.1411	1.0059	-2.8619	-21.5826	28.1854	26.2500 
624.115	0.1738	-0.1255	0.9912	-2.7576	-21.4508	28.0426	26.2300 
624.135	0.1831	-0.1333	1.0029	-2.6367	-21.3245	27.9053	26.2400 
624.155	0.1621	-0.1494	1.0371	-2.5214	-21.1981	27.7679	26.2400 
624.175	0.2017	-0.0928	0.9478	-2.3566	-21.0828	27.6196	26.2400 
624.194	0.1860	-0.1196	0.9878	-2.3126	-20.9619	27.5208	26.2400 
624.214	0.1782	-0.1401	1.0127	-2.3785	-20.8026	27.4384	26.2600 
624.250	0.1870	-0.1387	1.0107	-2.4115	-20.6543	27.3505	26.2500 
624.254	0.1777	-0.1392	1.0205	-2.4115	-20.5005	27.2571	26.2300 
624.274	0.1558	-0.1719	1.0757	-2.3511	-20.3302	27.1252	26.2400 
624.294	0.1670	-0.1294	1.0151	-2.1094	-20.1434	26.9275	26.2200 
624.314	0.2075	-0.0654	0.9448	-1.7853	-19.9786	26.7462	26.2400 
624.334	0.1670	-0.1152	1.0117	-1.7688	-19.8083	26.6418	26.2400 
624.354	0.1729	-0.1211	1.0161	-1.7798	-19.6600	26.5320	26.2500 
624.373	0.1836	-0.1196	1.0127	-1.7358	-19.5282	26.4331	26.2400 
624.394	0.1772	-0.1167	1.0229	-1.6370	-19.3854	26.3287	26.2500 
624.414	0.1675	-0.1313	1.0405	-1.5161	-19.2261	26.2024	26.2400 
624.433	0.1655	-0.0952	0.9956	-1.2964	-19.0613	26.0376	26.2500 
624.453	0.2056	-0.0513	0.9463	-1.0052	-18.9185	25.8838	26.2300 
624.490	0.1807	-0.0840	0.9971	-0.9448	-18.7592	25.7849	26.2300 
624.494	0.1685	-0.1025	1.0200	-1.0162	-18.5834	25.6860	26.2300 
624.513	0.1768	-0.1064	1.0186	-1.0822	-18.4351	25.5762	26.2400 
624.533	0.1772	-0.1021	1.0171	-1.1261	-18.2977	25.4608	26.2500 
624.552	0.1724	-0.0996	1.0190	-1.1481	-18.1659	25.3400	26.2500 
624.572	0.1714	-0.1011	1.0229	-1.1646	-18.0450	25.2136	26.2400 
624.593	0.1768	-0.0903	1.0049	-1.1591	-17.9297	25.0818	26.2300 
624.612	0.1782	-0.0894	1.0000	-1.1481	-17.8088	24.9719	26.2300 
624.632	0.1802	-0.0859	1.0015	-1.1646	-17.6715	24.8840	26.2300 
624.685	0.1768	-0.0898	1.0103	-1.2085	-17.5397	24.7961	26.2400 
624.688	0.1685	-0.0957	1.0137	-1.2854	-17.4298	24.6973	26.2300 
624.691	0.1660	-0.0986	1.0156	-1.3678	-17.3254	24.6039	26.2400 
624.712	0.1675	-0.0889	0.9980	-1.4282	-17.2375	24.5160	26.2400 
624.732	0.1763	-0.0918	1.0020	-1.5106	-17.1606	24.4501	26.2500 
624.751	0.1753	-0.0898	1.0029	-1.6699	-17.0728	24.4171	26.2300 
624.772	0.1733	-0.1094	1.0229	-1.8457	-16.9849	24.3842	26.2400 
624.791	0.1768	-0.1025	1.0127	-1.9720	-16.9080	24.3512	26.2400 
624.814	0.1768	-0.1030	1.0068	-2.0874	-16.8365	24.3182	26.2300 
624.831	0.1807	-0.0938	0.9961	-2.1973	-16.7596	24.2963	26.2500 
624.874	0.1758	-0.1011	1.0000	-2.3346	-16.6608	24.2908	26.2600 
624.877	0.1733	-0.1108	1.0137	-2.5104	-16.5454	24.3073	26.2300 
624.891	0.1694	-0.1177	1.0205	-2.6642	-16.4246	24.3018	26.2300 
624.911	0.1729	-0.1172	1.0186	-2.7795	-16.3202	24.2743	26.2400 
624.932	0.1733	-0.1104	1.0073	-2.8619	-16.2213	24.2303	26.2400 
624.951	0.1753	-0.1079	1.0049	-2.9333	-16.1279	24.1754	26.2400 
624.971	0.1704	-0.1138	1.0112	-3.0212	-16.0291	24.1315	26.2400 
624.991	0.1685	-0.1201	1.0171	-3.1146	-15.9357	24.0875	26.2300 
625.010	0.1709	-0.1172	1.0132	-3.1586	-15.8643	24.0381	26.2500 
625.063	0.1753	-0.1133	1.0107	-3.1641	-15.8038	23.9941	26.2300 
625.066	0.1763	-0.1079	1.0044	-3.1421	-15.7379	23.9447	26.2300 
625.070	0.1738	-0.1030	1.0039	-3.1146	-15.6720	23.8898	26.2500 
625.090	0.1738	-0.1099	1.0093	-3.1146	-15.5951	23.8403	26.2500 
625.110	0.1743	-0.1123	1.0107	-3.1256	-15.5237	23.7909	26.2400 
625.130	0.1753	-0.1118	1.0093	-3.1476	-15.4578	23.7469	26.2300 
625.150	0.1738	-0.1099	1.0103	-3.1750	-15.3918	23.6975	26.2300 
625.170	0.1772	-0.1055	1.0039	-3.1970	-15.3259	23.6426	26.2400 
625.189	0.1738	-0.1060	1.0093	-3.2190	-15.2545	23.5931	26.2300 
625.209	0.1738	-0.1123	1.0029	-3.2684	-15.1666	23.5327	26.2500 
625.255	0.1729	-0.1113	1.0146	-3.3453	-15.0952	23.4833	26.2300 
625.258	0.1748	-0.1133	1.0151	-3.4003	-15.0403	23.4393	26.2400 
625.269	0.1748	-0.1133	1.0117	-3.4003	-14.9634	23.3844	26.2300 
625.289	0.1777	-0.1074	1.0107	-3.3838	-14.8865	23.3240	26.2400 
625.309	0.1768	-0.1060	1.0103	-3.3508	-14.8315	23.2690	26.2500 
625.329	0.1738	-0.1050	1.0083	-3.3014	-14.7821	23.2086	26.2400 
625.349	0.1782	-0.1069	1.0103	-3.2410	-14.6997	23.1372	26.2400 
625.371	0.1763	-0.0991	1.0083	-3.1696	-14.6338	23.0658	26.2400 
625.388	0.1738	-0.0981	1.0088	-3.1201	-14.5679	22.9724	26.2500 
625.408	0.1743	-0.1030	1.0117	-3.1201	-14.4800	22.8735	26.2500 
625.430	0.1738	-0.1016	1.0112	-3.0927	-14.4031	22.7747	26.2500 
625.448	0.1768	-0.1006	1.0132	-3.0597	-14.3536	22.6703	26.2500 
625.493	0.1748	-0.0967	1.0049	-3.0707	-14.3097	22.5769	26.2500 
625.496	0.1782	-0.0947	1.0068	-3.0377	-14.2603	22.5000	26.2500 
625.508	0.1797	-0.0928	1.0044	-3.0487	-14.2108	22.4231	26.2500 
625.528	0.1763	-0.1006	1.0112	-3.1036	-14.1669	22.3517	26.2400 
625.548	0.1772	-0.0981	1.0146	-3.1201	-14.1064	22.2858	26.2400 
625.568	0.1777	-0.0996	1.0098	-3.1531	-14.0460	22.2198	26.2500 
625.587	0.1787	-0.0962	1.0029	-3.1860	-14.0076	22.1539	26.2300 
625.608	0.1777	-0.0977	1.0083	-3.2190	-13.9581	22.0880	26.2300 
625.629	0.1787	-0.1021	1.0107	-3.2574	-13.9087	22.0221	26.2400 
625.678	0.1787	-0.0991	1.0122	-3.2684	-13.8647	21.9507	26.2400 
625.681	0.1772	-0.0986	1.0107	-3.2849	-13.8153	21.8793	26.2400 
625.687	0.1812	-0.0977	1.0098	-3.2849	-13.7604	21.8079	26.2500 
625.707	0.1816	-0.0918	1.0024	-3.2739	-13.7000	21.7419	26.2500 
625.727	0.1748	-0.0962	1.0098	-3.3069	-13.6395	21.6760	26.2500 
625.747	0.1768	-0.0986	1.0117	-3.3453	-13.5736	21.6156	26.2500 
625.767	0.1792	-0.0967	1.0103	-3.3783	-13.5132	21.5662	26.2400 
625.786	0.1782	-0.0991	1.0117	-3.4167	-13.4473	21.5112	26.2400 
625.805	0.1787	-0.0957	1.0063	-3.4497	-13.3868	21.4618	26.2300 
625.829	0.1782	-0.0967	1.0073	-3.4827	-13.3264	21.4233	26.2400 
625.880	0.1748	-0.0986	1.0127	-3.5266	-13.2605	21.3849	26.2500 
625.885	0.1763	-0.1006	1.0122	-3.5651	-13.2056	21.3409	26.2500 
625.889	0.1753	-0.1006	1.0107	-3.5925	-13.1506	21.2915	26.2600 
625.906	0.1763	-0.1006	1.0117	-3.5980	-13.0957	21.2366	26.2500 
625.926	0.1758	-0.0991	1.0117	-3.5925	-13.0463	21.1761	26.2500 
625.945	0.1748	-0.0986	1.0146	-3.5760	-12.9913	21.1212	26.2500 
625.965	0.1694	-0.1021	1.0200	-3.5486	-12.9309	21.0498	26.2700 
625.985	0.1738	-0.1021	1.0205	-3.4991	-12.8705	20.9674	26.2500 
626.005	0.1812	-0.0972	1.0127	-3.4167	-12.8210	20.8905	26.2500 
626.034	0.1802	-0.0874	1.0054	-3.3234	-12.7716	20.8191	26.2500 
626.045	0.1777	-0.0884	1.0078	-3.2465	-12.7112	20.7367	26.2500 
626.065	0.1733	-0.0859	1.0068	-3.2025	-12.6563	20.6598	26.2500 
626.085	0.1714	-0.0879	1.0098	-3.1641	-12.6123	20.5774	26.2400 
626.123	0.1777	-0.0889	1.0122	-3.1201	-12.5684	20.5115	26.2400 
626.125	0.1797	-0.0850	1.0068	-3.0817	-12.5244	20.4510	26.2400 
626.145	0.1787	-0.0835	1.0073	-3.0487	-12.4805	20.4071	26.2600 
626.165	0.1787	-0.0820	1.0078	-3.0322	-12.4420	20.3577	26.2600 
626.185	0.1777	-0.0830	1.0073	-3.0157	-12.3926	20.3137	26.2600 
626.204	0.1768	-0.0840	1.0117	-2.9993	-12.3322	20.2643	26.2400 
626.224	0.1758	-0.0825	1.0122	-2.9828	-12.2607	20.2094	26.2500 
626.244	0.1753	-0.0806	1.0122	-2.9718	-12.1838	20.1434	26.2500 
626.264	0.1743	-0.0815	1.0088	-2.9608	-12.1124	20.0775	26.2400 
626.310	0.1689	-0.0806	1.0117	-2.9608	-12.0410	20.0116	26.2400 
626.312	0.1699	-0.0820	1.0132	-2.9553	-11.9751	19.9402	26.2500 
626.324	0.1709	-0.0815	1.0132	-2.9608	-11.9037	19.8688	26.2500 
626.344	0.1729	-0.0815	1.0117	-2.9773	-11.8378	19.8138	26.2500 
626.363	0.1675	-0.0811	1.0171	-2.9993	-11.7664	19.7699	26.2400 
626.383	0.1655	-0.0820	1.0161	-3.0157	-11.7114	19.7260	26.2800 
626.403	0.1650	-0.0830	1.0181	-3.0267	-11.6675	19.6710	26.2600 
626.423	0.1655	-0.0801	1.0181	-3.0377	-11.6455	19.6161	26.2600 
626.443	0.1680	-0.0811	1.0146	-3.0432	-11.6345	19.5612	26.2500 
626.497	0.1777	-0.0806	1.0112	-3.0487	-11.6345	19.5117	26.2600 
626.499	0.1802	-0.0791	1.0088	-3.0542	-11.6345	19.4678	26.2600 
626.503	0.1777	-0.0796	1.0098	-3.0707	-11.6235	19.4293	26.2600 
626.523	0.1743	-0.0796	1.0103	-3.0872	-11.5961	19.3799	26.2600 
626.542	0.1733	-0.0820	1.0137	-3.1201	-11.5686	19.3304	26.2500 
626.562	0.1714	-0.0825	1.0132	-3.1476	-11.5356	19.2810	26.2600 
626.582	0.1719	-0.0820	1.0151	-3.1641	-11.5027	19.2371	26.2500 
626.602	0.1738	-0.0806	1.0127	-3.1696	-11.4697	19.1931	26.2700 
626.622	0.1719	-0.0791	1.0112	-3.1750	-11.4313	19.1492	26.2600 
626.643	0.1719	-0.0776	1.0137	-3.1860	-11.3983	19.1107	26.2700 
626.687	0.1704	-0.0811	1.0137	-3.2025	-11.3654	19.0723	26.2400 
626.690	0.1714	-0.0801	1.0122	-3.2080	-11.3379	19.0283	26.2400 
626.702	0.1714	-0.0796	1.0127	-3.2135	-11.3104	18.9734	26.2500 
626.722	0.1724	-0.0791	1.0117	-3.2080	-11.2830	18.9294	26.2600 
626.743	0.1733	-0.0796	1.0122	-3.2025	-11.2500	18.8910	26.2400 
626.763	0.1709	-0.0771	1.0127	-3.1970	-11.2225	18.8580	26.2600 
626.782	0.1709	-0.0796	1.0142	-3.1750	-11.2006	18.8141	26.2700 
626.801	0.1729	-0.0771	1.0122	-3.1421	-11.1841	18.7701	26.2700 
626.821	0.1738	-0.0791	1.0137	-3.1091	-11.1621	18.7262	26.2700 
626.841	0.1738	-0.0752	1.0137	-3.0652	-11.1456	18.6877	26.2700 
626.861	0.1733	-0.0732	1.0103	-3.0212	-11.1292	18.6493	26.2500 
626.881	0.1733	-0.0723	1.0122	-2.9883	-11.1072	18.6163	26.2600 
626.927	0.1724	-0.0737	1.0103	-2.9773	-11.0852	18.5779	26.2500 
626.931	0.1729	-0.0752	1.0132	-2.9718	-11.0687	18.5394	26.2800 
626.941	0.1772	-0.0728	1.0103	-2.9608	-11.0522	18.5010	26.2600 
626.961	0.1772	-0.0693	1.0098	-2.9553	-11.0358	18.4515	26.2600 
626.980	0.1733	-0.0723	1.0122	-2.9553	-11.0193	18.4021	26.2700 
627.001	0.1714	-0.0703	1.0103	-2.9663	-10.9918	18.3582	26.2700 
627.021	0.1694	-0.0684	1.0112	-2.9938	-10.9534	18.3142	26.2600 
627.040	0.1738	-0.0596	0.9976	-3.0432	-10.9149	18.2813	26.2800 
627.060	0.1670	-0.0786	1.0166	-3.1421	-10.8655	18.2648	26.2600 
627.126	0.1826	-0.0718	1.0039	-3.2355	-10.8105	18.2648	26.2600 
627.129	0.1851	-0.0649	0.9951	-3.3453	-10.7556	18.2977	26.2600 
627.129	0.1694	-0.0820	1.0151	-3.5211	-10.6787	18.3527	26.2600 
627.140	0.1641	-0.0825	1.0190	-3.7244	-10.5853	18.4131	26.2800 
627.160	0.1738	-0.0864	1.0137	-3.9441	-10.4974	18.5010	26.2500 
627.179	0.1777	-0.0903	1.0151	-4.1968	-10.4095	18.6053	26.2500 
627.199	0.1582	-0.1016	1.0171	-4.4769	-10.3217	18.7097	26.2600 
627.219	0.1553	-0.1060	1.0151	-4.7626	-10.2228	18.8141	26.2600 
627.239	0.1470	-0.1118	1.0205	-5.0153	-10.1294	18.8965	26.2600 
627.259	0.1602	-0.1118	1.0161	-5.2570	-10.0470	18.9734	26.2500 
627.330	0.1709	-0.1128	1.0107	-5.4767	-9.9646	19.0613	26.2500 
627.338	0.1392	-0.0962	1.0122	-5.7019	-9.8602	19.1986	26.2600 
627.338	0.0996	-0.1221	1.0293	-5.9875	-9.7119	19.5337	26.2500 
627.340	0.0884	-0.1270	1.0298	-6.2677	-9.5856	20.0665	26.2500 
627.364	0.1221	-0.1167	1.0142	-6.4709	-9.5306	20.8630	26.2500 
627.379	0.1094	-0.1289	1.0269	-6.6797	-9.4922	21.8683	26.2600 
627.398	0.1499	-0.1494	1.0171	-6.8829	-9.4867	23.2361	26.2700 
627.417	0.2202	-0.1772	1.0054	-7.0532	-9.5251	24.7742	26.2800 
627.438	0.1372	-0.1973	1.0605	-7.1136	-9.6185	25.8234	26.2700 
627.458	0.1274	-0.1338	1.0156	-6.9159	-9.7284	25.8618	26.2700 
627.478	0.1553	-0.1426	1.0210	-6.5973	-9.9536	25.6586	26.2800 
627.521	0.2178	-0.1445	1.0117	-6.2457	-10.1953	25.4828	26.2800 
627.525	0.2139	-0.1177	1.0049	-5.8667	-10.3271	25.3345	26.2500 
627.538	0.1973	-0.0933	0.9951	-5.4987	-10.3326	25.2026	26.2700 
627.558	0.1641	-0.0889	1.0034	-5.2405	-10.2722	25.1093	26.2700 
627.578	0.1606	-0.0957	1.0078	-5.0757	-10.1898	25.0378	26.2700 
627.597	0.1665	-0.1001	1.0093	-4.9274	-10.1129	24.9719	26.2600 
627.618	0.1675	-0.0947	1.0103	-4.7406	-10.0250	24.9225	26.2700 
627.639	0.1733	-0.0825	1.0000	-4.5264	-9.9371	24.8730	26.2600 
627.657	0.1738	-0.0825	1.0039	-4.3396	-9.8602	24.8401	26.2600 
627.717	0.1650	-0.0811	1.0078	-4.1968	-9.7778	24.8016	26.2800 
627.720	0.1523	-0.0791	1.0156	-4.0814	-9.7064	24.7577	26.2700 
627.720	0.1582	-0.0815	1.0137	-3.9935	-9.6625	24.6973	26.2700 
627.737	0.1650	-0.0811	1.0112	-3.9001	-9.6405	24.6533	26.2700 
627.757	0.1660	-0.0786	1.0161	-3.7903	-9.6185	24.6259	26.2800 
627.776	0.1626	-0.0757	1.0161	-3.6804	-9.5911	24.5874	26.2800 
627.796	0.1611	-0.0718	1.0146	-3.5925	-9.5746	24.5490	26.2700 
627.816	0.1636	-0.0703	1.0117	-3.5211	-9.5691	24.5270	26.2800 
627.836	0.1611	-0.0737	1.0215	-3.4882	-9.5691	24.4940	26.2800 
627.856	0.1606	-0.0732	1.0166	-3.4717	-9.5581	24.4556	26.2800 
627.907	0.1675	-0.0786	1.0215	-3.4552	-9.5526	24.4391	26.2800 
627.909	0.1670	-0.0713	1.0122	-3.4222	-9.5526	24.4336	26.2800 
627.916	0.1626	-0.0708	1.0156	-3.4003	-9.5471	24.4116	26.2600 
627.936	0.1636	-0.0713	1.0166	-3.3838	-9.5416	24.4061	26.2800 
627.956	0.1650	-0.0732	1.0244	-3.3618	-9.5416	24.4006	26.2800 
627.977	0.1704	-0.0728	1.0254	-3.3234	-9.5526	24.4116	26.2800 
627.996	0.1655	-0.0786	1.0337	-3.2739	-9.6240	24.4446	26.2700 
628.015	0.1660	-0.0635	1.0151	-3.2080	-9.7394	24.4995	26.2900 
628.035	0.1670	-0.0610	1.0068	-3.1586	-9.8602	24.5325	26.2600 
628.056	0.1694	-0.0649	1.0078	-3.1421	-9.9536	24.5654	26.2800 
628.097	0.1694	-0.0659	1.0146	-3.1476	-10.0305	24.6039	26.2800 
628.101	0.1787	-0.0830	1.0435	-3.1860	-10.1294	24.6643	26.2600 
628.115	0.1846	-0.0718	1.0166	-3.2355	-10.2612	24.7522	26.2700 
628.135	0.1821	-0.0576	0.9932	-3.2520	-10.3656	24.8456	26.3000 
628.155	0.1929	-0.0635	1.0015	-3.2465	-10.4425	24.9170	26.2900 
628.174	0.1787	-0.0649	1.0176	-3.2410	-10.5139	24.9719	26.2800 
628.194	0.1821	-0.0630	1.0078	-3.2410	-10.5688	25.0049	26.2800 
628.214	0.1846	-0.0688	1.0103	-3.2574	-10.6183	25.0323	26.3000 
628.234	0.1743	-0.0664	1.0176	-3.2904	-10.6348	25.0378	26.2700 
628.254	0.1792	-0.0591	1.0029	-3.3398	-10.6293	25.0488	26.2600 
628.276	0.1802	-0.0659	1.0098	-3.4003	-10.6238	25.0488	26.2600 
628.294	0.1826	-0.0762	1.0225	-3.4552	-10.6293	25.0598	26.2800 
628.348	0.1899	-0.0737	1.0142	-3.4882	-10.6458	25.0818	26.2900 
628.350	0.1836	-0.0596	0.9927	-3.4662	-10.6622	25.0928	26.2800 
628.354	0.1772	-0.0591	1.0005	-3.4277	-10.6842	25.0763	26.2800 
628.373	0.1855	-0.0654	1.0068	-3.3893	-10.7117	25.0598	26.2900 
628.394	0.1963	-0.0654	0.9980	-3.3618	-10.7391	25.0543	26.2900 
628.413	0.1929	-0.0640	1.0039	-3.3398	-10.7391	25.0323	26.2800 
628.434	0.1948	-0.0781	1.0317	-3.3398	-10.7336	25.0269	26.2900 
628.453	0.2432	-0.1006	1.0015	-3.3453	-10.7281	25.0598	26.2800 
628.472	0.2925	-0.1235	0.9624	-3.3179	-10.6897	25.1532	26.2700 
628.493	0.2109	-0.0640	0.9878	-3.1476	-10.4865	25.1257	26.2800 
628.544	0.2534	-0.0718	0.9863	-2.9333	-10.1678	24.9884	26.3000 
628.546	0.2427	-0.0815	1.0254	-2.7686	-9.7778	24.8181	26.2800 
628.553	0.2046	-0.0732	1.0684	-2.6807	-9.3549	24.5544	26.2900 
628.572	0.2764	-0.1021	1.0347	-2.6587	-9.0582	24.2853	26.2800 
628.592	0.2310	-0.0796	1.0342	-2.5928	-8.8879	23.8293	26.3000 
628.612	0.1533	-0.1094	1.1504	-2.4829	-8.7726	23.0603	26.2800 
628.632	0.2905	-0.1001	1.0112	-2.3016	-8.8660	22.3462	26.2700 
628.651	0.1274	-0.0239	0.9697	-2.1039	-9.0582	21.4508	26.2800 
628.672	-0.2339	0.1016	0.9531	-1.9061	-9.0582	20.1105	26.2800 
628.692	-0.3501	0.1357	0.9414	-1.6699	-8.8440	19.0283	26.2800 
628.731	0.1973	-0.0171	0.8901	-1.7853	-8.9319	18.9514	26.2800 
628.733	0.1426	0.0156	0.8433	-2.1313	-9.0692	19.0833	26.2900 
628.751	0.2290	-0.1826	1.2944	-2.5873	-9.1461	19.1602	26.3000 
628.771	0.1899	-0.0791	1.0767	-2.8015	-9.0692	19.2096	26.2600 
628.791	0.1738	-0.0762	1.0576	-2.9279	-8.9209	19.1547	26.2800 
628.811	0.1396	-0.0752	1.0532	-3.0267	-8.7836	19.0558	26.2800 
628.831	0.1455	-0.0669	1.0386	-3.1036	-8.7286	18.9789	26.2900 
628.851	0.1650	-0.0703	1.0161	-3.0762	-8.7067	18.9075	26.2900 
628.873	0.1792	-0.0718	1.0156	-3.0157	-8.7396	18.8855	26.2700 
628.921	0.1772	-0.0659	1.0142	-3.0103	-8.7946	18.8910	26.2700 
628.923	0.1553	-0.0552	1.0088	-3.1311	-8.8605	18.9020	26.2800 
628.933	0.1709	-0.0991	1.0337	-3.3563	-8.9703	18.9569	26.2700 
628.951	0.1836	-0.1035	1.0215	-3.5760	-9.0912	19.0283	26.2700 
628.973	0.1797	-0.0967	1.0234	-3.7134	-9.1736	19.0778	26.2800 
628.990	0.1743	-0.0845	1.0190	-3.7683	-9.2010	19.0997	26.2600 
629.010	0.1689	-0.0850	1.0205	-3.8068	-9.2010	19.1052	26.2800 
629.030	0.1675	-0.0845	1.0234	-3.8287	-9.1846	19.1052	26.2900 
629.051	0.1641	-0.0859	1.0234	-3.8342	-9.1736	19.1052	26.2800 
629.070	0.1660	-0.0869	1.0186	-3.8287	-9.1791	19.1107	26.2800 
629.091	0.1646	-0.0801	1.0186	-3.7848	-9.1901	19.0997	26.2800 
629.110	0.1675	-0.0762	1.0122	-3.7408	-9.2010	19.0887	26.2800 
629.172	0.1709	-0.0728	1.0078	-3.6859	-9.2120	19.0778	26.2800 
629.175	0.1733	-0.0586	0.9902	-3.6365	-9.2065	19.0778	26.2900 
629.175	0.1655	-0.0713	1.0127	-3.6420	-9.1791	19.0833	26.2800 
629.189	0.1621	-0.0791	1.0215	-3.6694	-9.1626	19.0997	26.2800 
629.209	0.1646	-0.0786	1.0190	-3.6914	-9.1516	19.1107	26.2700 
629.229	0.1680	-0.0757	1.0151	-3.6969	-9.1516	19.1107	26.2900 
629.249	0.1670	-0.0762	1.0156	-3.6969	-9.1571	19.1162	26.2900 
629.269	0.1641	-0.0693	1.0103	-3.6859	-9.1571	19.1162	26.2900 
629.288	0.1646	-0.0732	1.0161	-3.6859	-9.1516	19.1052	26.2800 
629.309	0.1650	-0.0732	1.0146	-3.6914	-9.1461	19.1107	26.2900 
629.372	0.1650	-0.0776	1.0176	-3.7079	-9.1351	19.1217	26.2800 
629.376	0.1694	-0.0767	1.0132	-3.7244	-9.1241	19.1327	26.2900 
629.376	0.1675	-0.0737	1.0137	-3.7299	-9.1022	19.1327	26.2800 
629.388	0.1646	-0.0732	1.0137	-3.7354	-9.0857	19.1327	26.3000 
629.408	0.1636	-0.0728	1.0142	-3.7408	-9.0747	19.1272	26.2700 
629.428	0.1680	-0.0742	1.0142	-3.7573	-9.0637	19.1272	26.2800 
629.448	0.1680	-0.0752	1.0122	-3.7683	-9.0527	19.1327	26.2900 
629.468	0.1650	-0.0776	1.0166	-3.7958	-9.0308	19.1327	26.2800 
629.488	0.1636	-0.0776	1.0166	-3.8397	-9.0088	19.1272	26.2800 
629.507	0.1631	-0.0781	1.0142	-3.8837	-8.9923	19.1107	26.2800 
629.567	0.1621	-0.0776	1.0127	-3.9221	-8.9758	19.1052	26.2800 
629.569	0.1646	-0.0776	1.0146	-3.9496	-8.9703	19.0997	26.2800 
629.569	0.1636	-0.0801	1.0151	-3.9716	-8.9758	19.1107	26.2800 
629.587	0.1641	-0.0771	1.0122	-3.9880	-8.9758	19.1162	26.3000 
629.607	0.1626	-0.0767	1.0137	-4.0100	-8.9703	19.1272	26.2800 
629.627	0.1626	-0.0806	1.0161	-4.0375	-8.9648	19.1272	26.3000 
629.648	0.1646	-0.0806	1.0146	-4.0704	-8.9648	19.1217	26.2800 
629.668	0.1660	-0.0767	1.0107	-4.0924	-8.9703	19.1217	26.3000 
629.689	0.1646	-0.0801	1.0142	-4.1199	-8.9758	19.1272	26.3000 
629.707	0.1665	-0.0830	1.0137	-4.1473	-8.9758	19.1162	26.2800 
629.769	0.1650	-0.0811	1.0151	-4.1528	-8.9813	19.0997	26.2900 
629.773	0.1685	-0.0811	1.0122	-4.1473	-8.9868	19.0833	26.3000 
629.773	0.1670	-0.0801	1.0112	-4.1418	-8.9923	19.0723	26.2900 
629.786	0.1646	-0.0796	1.0142	-4.1418	-8.9868	19.0613	26.2700 
629.808	0.1646	-0.0791	1.0166	-4.1418	-8.9758	19.0558	26.2800 
629.826	0.1650	-0.0786	1.0151	-4.1364	-8.9703	19.0503	26.2900 
629.846	0.1665	-0.0786	1.0127	-4.1309	-8.9648	19.0448	26.3100 
629.868	0.1655	-0.0791	1.0146	-4.1254	-8.9648	19.0503	26.2900 
629.887	0.1636	-0.0815	1.0156	-4.1089	-8.9648	19.0503	26.2800 
629.905	0.1636	-0.0776	1.0127	-4.0814	-8.9648	19.0613	26.2900 
629.968	0.1655	-0.0767	1.0142	-4.0540	-8.9648	19.0668	26.2800 
629.971	0.1650	-0.0767	1.0161	-4.0320	-8.9703	19.0723	26.2800 
629.971	0.1655	-0.0771	1.0142	-4.0155	-8.9703	19.0723	26.3000 
629.985	0.1660	-0.0786	1.0161	-4.0100	-8.9648	19.0668	26.3100 
630.005	0.1655	-0.0762	1.0117	-4.0100	-8.9648	19.0613	26.3000 
630.025	0.1655	-0.0771	1.0146	-4.0045	-8.9594	19.0558	26.2900 
630.045	0.1675	-0.0776	1.0132	-4.0045	-8.9594	19.0448	26.2900 
630.065	0.1689	-0.0757	1.0107	-4.0045	-8.9594	19.0338	26.2900 
630.085	0.1650	-0.0781	1.0176	-3.9990	-8.9594	19.0283	26.2900 
630.105	0.1660	-0.0776	1.0161	-4.0045	-8.9594	19.0338	26.3100 
630.157	0.1665	-0.0771	1.0146	-4.0045	-8.9594	19.0338	26.3000 
630.160	0.1680	-0.0776	1.0142	-4.0100	-8.9594	19.0338	26.2900 
630.165	0.1680	-0.0757	1.0117	-4.0100	-8.9594	19.0393	26.3000 
630.184	0.1655	-0.0771	1.0151	-4.0100	-8.9539	19.0503	26.3100 
630.205	0.1660	-0.0771	1.0161	-4.0155	-8.9429	19.0503	26.2900 
630.224	0.1675	-0.0776	1.0142	-4.0210	-8.9374	19.0503	26.2900 
630.244	0.1675	-0.0762	1.0122	-4.0155	-8.9319	19.0558	26.2900 
630.264	0.1655	-0.0767	1.0156	-4.0210	-8.9209	19.0613	26.3000 
630.284	0.1650	-0.0776	1.0127	-4.0210	-8.9099	19.0668	26.2900 
630.305	0.1665	-0.0752	1.0103	-4.0210	-8.8989	19.0668	26.2900 
630.350	0.1650	-0.0732	1.0107	-4.0265	-8.8824	19.0668	26.3000 
630.353	0.1655	-0.0757	1.0156	-4.0375	-8.8605	19.0613	26.3000 
630.364	0.1670	-0.0781	1.0151	-4.0540	-8.8440	19.0613	26.2800 
630.384	0.1665	-0.0781	1.0142	-4.0649	-8.8330	19.0558	26.2900 
630.403	0.1650	-0.0776	1.0137	-4.0759	-8.8220	19.0503	26.3000 
630.423	0.1646	-0.0771	1.0137	-4.0814	-8.8110	19.0448	26.3100 
630.443	0.1646	-0.0776	1.0151	-4.0869	-8.8000	19.0393	26.3000 
630.468	0.1646	-0.0762	1.0156	-4.0979	-8.7891	19.0338	26.3000 
630.483	0.1641	-0.0771	1.0171	-4.1034	-8.7836	19.0338	26.3000 
630.504	0.1626	-0.0767	1.0156	-4.1089	-8.7726	19.0173	26.3100 
630.539	0.1631	-0.0771	1.0146	-4.1199	-8.7726	19.0118	26.3100 
630.542	0.1655	-0.0737	1.0083	-4.1254	-8.7726	19.0118	26.3000 
630.562	0.1641	-0.0762	1.0156	-4.1364	-8.7726	19.0118	26.3100 
630.582	0.1655	-0.0791	1.0156	-4.1473	-8.7781	19.0118	26.3000 
630.602	0.1650	-0.0786	1.0127	-4.1528	-8.7781	19.0173	26.3100 
630.622	0.1650	-0.0781	1.0112	-4.1583	-8.7781	19.0228	26.3100 
630.642	0.1636	-0.0757	1.0166	-4.1638	-8.7781	19.0283	26.3000 
630.662	0.1641	-0.0781	1.0161	-4.1748	-8.7726	19.0283	26.3000 
630.682	0.1650	-0.0791	1.0137	-4.1803	-8.7726	19.0338	26.2900 
630.702	0.1655	-0.0791	1.0142	-4.1858	-8.7671	19.0338	26.3100 
630.722	0.1655	-0.0791	1.0181	-4.1858	-8.7561	19.0338	26.3100 
630.745	0.1641	-0.0776	1.0146	-4.1913	-8.7451	19.0338	26.3200 
630.780	0.1621	-0.0781	1.0142	-4.1858	-8.7396	19.0393	26.3100 
630.781	0.1646	-0.0771	1.0137	-4.1803	-8.7396	19.0338	26.3100 
630.801	0.1636	-0.0781	1.0151	-4.1748	-8.7396	19.0283	26.3000 
630.821	0.1646	-0.0781	1.0171	-4.1748	-8.7341	19.0228	26.3000 
630.841	0.1655	-0.0757	1.0127	-4.1748	-8.7231	19.0173	26.3100 
630.861	0.1646	-0.0776	1.0117	-4.1858	-8.7177	19.0173	26.3000 
630.881	0.1655	-0.0776	1.0146	-4.2023	-8.7067	19.0118	26.3100 
630.901	0.1660	-0.0806	1.0156	-4.2242	-8.7067	19.0063	26.3000 
630.921	0.1641	-0.0791	1.0132	-4.2407	-8.7067	18.9954	26.3100 
630.967	0.1631	-0.0791	1.0156	-4.2572	-8.7067	18.9844	26.3100 
630.969	0.1655	-0.0786	1.0137	-4.2682	-8.7067	18.9844	26.3100 
630.981	0.1660	-0.0786	1.0127	-4.2847	-8.7012	18.9734	26.3100 
631.000	0.1626	-0.0801	1.0117	-4.3066	-8.7012	18.9514	26.3100 
631.020	0.1626	-0.0801	1.0142	-4.3341	-8.6957	18.9459	26.3100 
631.040	0.1621	-0.0796	1.0161	-4.3671	-8.6957	18.9459	26.3100 
631.060	0.1636	-0.0820	1.0166	-4.3890	-8.7012	18.9459	26.2900 
631.080	0.1675	-0.0801	1.0122	-4.4055	-8.7067	18.9624	26.3100 
631.100	0.1641	-0.0811	1.0146	-4.4165	-8.7067	18.9844	26.3200 
631.154	0.1636	-0.0811	1.0137	-4.4330	-8.7067	19.0063	26.3000 
631.157	0.1660	-0.0825	1.0142	-4.4495	-8.7067	19.0283	26.3200 
631.160	0.1665	-0.0806	1.0117	-4.4714	-8.7067	19.0503	26.3000 
631.179	0.1646	-0.0820	1.0151	-4.4989	-8.7012	19.0668	26.3000 
631.199	0.1636	-0.0840	1.0161	-4.5209	-8.7012	19.0833	26.3100 
631.219	0.1631	-0.0845	1.0156	-4.5428	-8.6957	19.1162	26.3100 
631.239	0.1641	-0.0815	1.0098	-4.5538	-8.6957	19.1437	26.3000 
631.259	0.1631	-0.0815	1.0137	-4.5593	-8.6957	19.1602	26.3100 
631.279	0.1646	-0.0845	1.0142	-4.5703	-8.7012	19.1766	26.3100 
631.299	0.1646	-0.0840	1.0146	-4.5813	-8.7012	19.1876	26.3000 
631.347	0.1660	-0.0835	1.0156	-4.5813	-8.7067	19.1931	26.3200 
631.352	0.1641	-0.0859	1.0151	-4.5868	-8.7122	19.2041	26.3000 
631.362	0.1660	-0.0845	1.0166	-4.5868	-8.7122	19.2096	26.3200 
631.379	0.1641	-0.0854	1.0151	-4.5923	-8.7177	19.2206	26.3200 
631.401	0.1670	-0.0854	1.0112	-4.5923	-8.7231	19.2206	26.3300 
631.418	0.1655	-0.0854	1.0137	-4.5978	-8.7286	19.2151	26.3100 
631.438	0.1646	-0.0850	1.0132	-4.6033	-8.7341	19.2096	26.3300 
631.458	0.1660	-0.0845	1.0166	-4.6033	-8.7396	19.2041	26.3100 
631.478	0.1660	-0.0845	1.0142	-4.6088	-8.7451	19.1986	26.3100 
631.498	0.1670	-0.0850	1.0112	-4.6143	-8.7506	19.1931	26.3200 
631.520	0.1660	-0.0845	1.0127	-4.6198	-8.7506	19.1876	26.3200 
631.538	0.1655	-0.0850	1.0151	-4.6252	-8.7451	19.1876	26.3100 
631.597	0.1660	-0.0859	1.0171	-4.6307	-8.7451	19.2041	26.3200 
631.599	0.1660	-0.0825	1.0127	-4.6252	-8.7451	19.2151	26.2800 
631.599	0.1646	-0.0840	1.0132	-4.6252	-8.7396	19.2206	26.3100 
631.619	0.1660	-0.0830	1.0132	-4.6307	-8.7396	19.2371	26.3300 
631.638	0.1670	-0.0845	1.0132	-4.6362	-8.7341	19.2535	26.3300 
631.657	0.1660	-0.0864	1.0142	-4.6417	-8.7286	19.2645	26.3400 
631.677	0.1655	-0.0859	1.0142	-4.6527	-8.7286	19.2700	26.3200 
631.697	0.1650	-0.0845	1.0132	-4.6527	-8.7231	19.2590	26.3100 
631.719	0.1646	-0.0830	1.0117	-4.6582	-8.7231	19.2480	26.3300 
631.737	0.1650	-0.0864	1.0137	-4.6747	-8.7177	19.2371	26.3400 
631.792	0.1655	-0.0835	1.0132	-4.6857	-8.7177	19.2316	26.3200