StartTime: 2018-11-22 16:32:19.868
Time(s)	ax(g)	ay(g)	az(g)	AngleX(deg)	AngleY(deg)	AngleZ(deg)	T(Â°) 
954.931	0.1426	-0.0884	1.0200	-4.8944	-7.2949	4.4604	25.5900 
954.942	0.1455	-0.0864	1.0137	-4.8944	-7.2949	4.4659	25.5700 
954.962	0.1436	-0.0889	1.0195	-4.8999	-7.2949	4.4659	25.5900 
954.981	0.1436	-0.0874	1.0181	-4.8999	-7.2894	4.4769	25.5800 
955.001	0.1431	-0.0889	1.0190	-4.9054	-7.2894	4.4769	25.5900 
955.021	0.1450	-0.0903	1.0225	-4.9109	-7.2894	4.4879	25.5900 
955.042	0.1426	-0.0879	1.0176	-4.9164	-7.2949	4.4934	25.5900 
955.061	0.1460	-0.0879	1.0176	-4.9274	-7.2949	4.4934	25.5800 
955.081	0.1445	-0.0889	1.0176	-4.9438	-7.2894	4.4879	25.6000 
955.101	0.1460	-0.0913	1.0181	-4.9658	-7.2839	4.4879	25.6000 
955.121	0.1436	-0.0933	1.0234	-4.9933	-7.2839	4.4879	25.6000 
955.193	0.1470	-0.0947	1.0215	-5.0208	-7.2839	4.4824	25.5800 
955.196	0.1421	-0.0977	1.0327	-5.0372	-7.2784	4.4659	25.6000 
955.196	0.1406	-0.1084	1.0420	-5.0427	-7.2620	4.4495	25.6000 
955.200	0.1509	-0.0898	1.0117	-5.0098	-7.2290	4.4275	25.5900 
955.220	0.1650	-0.0703	0.9824	-4.9603	-7.1906	4.4220	25.5800 
955.243	0.1450	-0.0835	1.0127	-4.9658	-7.1301	4.4330	25.6000 
955.260	0.1255	-0.1021	1.0356	-5.0098	-7.0587	4.4220	25.5900 
955.280	0.1328	-0.1006	1.0361	-4.9988	-7.0148	4.3945	25.6000 
955.355	0.1504	-0.0923	1.0151	-4.9329	-6.9983	4.3835	25.5900 
955.359	0.1519	-0.0762	0.9956	-4.8450	-6.9763	4.3890	25.5900 
955.359	0.1284	-0.0776	1.0098	-4.7791	-6.9434	4.4055	25.6100 
955.364	0.1270	-0.0869	1.0229	-4.7296	-6.9214	4.3945	25.6000 
955.380	0.1455	-0.0898	1.0166	-4.6527	-6.9159	4.3781	25.6200 
955.400	0.1367	-0.0854	1.0239	-4.5428	-6.9214	4.3506	25.6000 
955.420	0.1494	-0.0635	0.9883	-4.4110	-6.9269	4.3286	25.6000 
955.439	0.1509	-0.0684	0.9951	-4.3066	-6.9214	4.3286	25.6100 
955.459	0.1255	-0.0811	1.0269	-4.2462	-6.9104	4.3286	25.6100 
955.479	0.1396	-0.0869	1.0254	-4.1528	-6.9214	4.3176	25.6000 
955.500	0.1265	-0.0679	1.0229	-3.9935	-6.9543	4.2737	25.6100 
955.543	0.1514	-0.0635	1.0054	-3.8068	-7.0258	4.2242	25.6100 
955.545	0.1333	-0.0527	1.0093	-3.6475	-7.0752	4.1913	25.6000 
955.559	0.1313	-0.0645	1.0259	-3.5431	-7.1082	4.1638	25.5900 
955.578	0.1372	-0.0654	1.0303	-3.4387	-7.1411	4.1418	25.5900 
955.599	0.1470	-0.0605	1.0229	-3.3234	-7.1796	4.1199	25.6000 
955.620	0.1494	-0.0547	1.0117	-3.2355	-7.2180	4.1254	25.6000 
955.639	0.1470	-0.0527	1.0171	-3.1970	-7.2400	4.1309	25.6000 
955.658	0.1421	-0.0581	1.0210	-3.2245	-7.2400	4.1473	25.6000 
955.678	0.1294	-0.0605	1.0317	-3.2684	-7.2180	4.1583	25.6100 
955.698	0.1362	-0.0596	1.0210	-3.2904	-7.2070	4.1528	25.6200 
955.718	0.1489	-0.0557	1.0142	-3.2959	-7.2125	4.1638	25.6200 
955.738	0.1377	-0.0615	1.0205	-3.3069	-7.2235	4.1858	25.6200 
955.795	0.1382	-0.0620	1.0220	-3.3124	-7.2400	4.2078	25.6100 
955.797	0.1377	-0.0635	1.0259	-3.3069	-7.2510	4.2133	25.6300 
955.799	0.1479	-0.0552	1.0112	-3.2739	-7.2729	4.2188	25.6100 
955.817	0.1411	-0.0469	1.0039	-3.2629	-7.3004	4.2242	25.6200 
955.837	0.1484	-0.0542	1.0093	-3.3014	-7.3444	4.2462	25.6200 
955.857	0.1567	-0.0640	1.0151	-3.3728	-7.3938	4.2902	25.6300 
955.877	0.1538	-0.0630	1.0171	-3.4662	-7.4268	4.3231	25.6100 
955.897	0.1582	-0.0605	1.0068	-3.6090	-7.4487	4.3616	25.6100 
955.917	0.1587	-0.0688	1.0098	-3.7958	-7.4432	4.4220	25.6200 
955.937	0.1445	-0.0781	1.0244	-4.0320	-7.4048	4.4879	25.6300 
955.990	0.1431	-0.0742	1.0264	-4.2572	-7.3553	4.5374	25.6100 
955.995	0.1465	-0.0815	1.0244	-4.4824	-7.3114	4.5978	25.6200 
955.997	0.1460	-0.0806	1.0210	-4.7241	-7.2729	4.6802	25.6200 
956.017	0.1401	-0.0864	1.0195	-5.0043	-7.2620	4.7791	25.6200 
956.041	0.1362	-0.0884	1.0161	-5.3119	-7.2565	4.8779	25.5900 
956.058	0.1392	-0.0796	1.0044	-5.6580	-7.2455	4.9658	25.6300 
956.076	0.1440	-0.1060	1.0273	-6.1194	-7.1851	5.0867	25.6000 
956.096	0.1475	-0.1011	1.0015	-6.7291	-7.0148	5.2405	25.6300 
956.115	0.1445	-0.1050	0.9961	-7.4377	-6.7181	5.4218	25.6100 
956.136	0.1069	-0.1382	1.0073	-8.2343	-6.2732	5.5756	25.6200 
956.180	0.1055	-0.1523	1.0146	-8.9868	-5.7788	5.6525	25.6100 
956.184	0.1074	-0.1846	1.0322	-9.6240	-5.2789	5.6030	25.6300 
956.196	0.1079	-0.2051	1.0386	-10.1129	-4.7845	5.4877	25.6200 
956.215	0.0967	-0.1865	1.0371	-10.4425	-4.2957	5.3448	25.6300 
956.235	0.0938	-0.1807	1.0483	-10.7336	-3.8287	5.1910	25.6500 
956.255	0.0801	-0.1943	1.0420	-11.1896	-3.3618	4.9988	25.6500 
956.275	0.0796	-0.1694	1.0391	-11.8048	-2.8839	4.8340	25.6400 
956.295	0.0825	-0.1519	1.0273	-12.6617	-2.3950	4.7296	25.6200 
956.314	0.1001	0.0186	1.0547	-13.7604	-2.0380	4.7900	25.6600 
956.373	0.0757	0.0073	1.2534	-15.8203	-1.9501	5.3284	25.6600 
956.376	0.0854	0.1665	1.4409	-19.6106	-1.8292	6.2732	25.6600 
956.376	0.3633	-0.0864	1.5425	-27.2845	-1.6040	7.3993	25.6300 
956.394	0.4839	-0.3066	1.3745	-37.1173	-0.9723	8.4760	25.6500 
956.415	0.5278	-0.1812	1.4194	-47.9224	1.3129	8.8385	25.6300 
956.434	0.9805	-0.2192	3.6875	-54.8987	4.2352	6.7621	25.6300 
956.454	0.8242	0.4321	1.9331	-54.1406	4.8834	5.6635	25.6400 
956.474	0.5474	0.2949	0.5063	-50.8392	4.4714	5.0208	25.6300 
956.495	0.5552	0.2065	0.6396	-47.4335	3.9386	4.2242	25.6300 
956.515	0.5952	0.1118	1.1250	-44.0717	3.3234	3.1915	25.6300 
956.561	0.4771	0.0405	1.2412	-39.8419	2.3785	1.9116	25.6100 
956.563	0.1060	-0.0977	1.0957	-34.7168	1.1646	0.5713	25.6200 
956.574	-0.0742	-0.2056	0.9858	-29.1797	-0.1813	-0.4559	25.6000 
956.594	-0.1226	-0.2998	0.9253	-23.8293	-1.5710	-1.0217	25.6200 
956.613	-0.1211	-0.3198	1.0981	-18.9075	-2.8784	-1.3239	25.6200 
956.633	-0.2241	-0.3350	1.3784	-14.0900	-3.9496	-1.6095	25.5800 
956.653	-0.2588	-0.3667	1.4102	-9.3164	-4.8669	-1.7413	25.5900 
956.673	0.0054	-0.4380	1.5098	-4.7461	-5.7294	-1.5546	25.5800 
956.693	0.1909	-0.4697	1.5571	-0.3955	-6.5039	-1.2634	25.5900 
956.713	0.3535	-0.5215	1.5654	3.7299	-7.2894	-1.1426	25.5900 
956.733	0.3950	-0.5503	1.5229	7.6740	-8.2562	-1.3019	25.5900 
956.753	0.4775	-0.6274	1.4229	11.1786	-9.4263	-1.8951	25.5800 
956.809	0.4663	-0.7134	1.4751	14.2218	-10.3931	-2.9498	25.6000 
956.811	0.2241	-0.8184	1.4976	17.0892	-10.7776	-4.9164	25.5800 
956.813	-0.0747	-0.8906	1.1240	20.2643	-10.5579	-8.3551	25.6000 
956.833	-0.5239	-1.0913	0.7070	23.2361	-9.7339	-11.9806	25.5900 
956.853	-0.9199	-1.2461	0.6470	25.4773	-8.5803	-14.7766	25.5900 
956.872	-0.9277	-1.4316	0.3823	26.6199	-7.8607	-15.9741	25.5900 
956.892	-0.4644	-1.3604	0.5073	26.6254	-7.4487	-15.9027	25.5900 
956.912	0.0547	-1.2783	0.2466	25.3619	-6.2732	-14.8315	25.5800 
956.935	0.3564	-0.4473	0.7529	22.7911	-4.3671	-12.2113	25.5700 
956.952	0.8521	0.4087	0.1484	20.2258	-2.6422	-10.0470	25.5800 
956.995	0.1680	-0.2671	1.4365	16.2103	-1.1810	-8.8989	25.5600 
956.998	-0.5303	0.0356	1.3569	12.1729	0.1154	-8.9758	25.5600 
957.012	1.0366	-0.5859	2.6631	7.3004	0.1044	-8.4760	25.5600 
957.032	-0.2881	-0.1694	1.8594	2.9169	-0.3076	-8.1464	25.6000 
957.051	0.0444	-0.0684	1.3208	0.9283	-1.0547	-8.0914	25.6100 
957.071	0.1196	-0.1260	1.1450	0.1154	-1.3184	-8.0640	25.6200 
957.092	0.0981	-0.1191	1.1084	-0.3845	-1.3843	-8.0255	25.6200 
957.111	0.1016	-0.0767	1.0371	-0.5603	-1.3348	-8.0365	25.6200 
957.131	0.1040	-0.0845	1.0288	-0.7141	-1.3733	-8.0475	25.6300 
957.183	0.1143	-0.0786	1.0337	-0.8569	-1.5436	-8.0420	25.6300 
957.185	0.1167	-0.0742	1.0161	-0.9338	-1.8018	-7.9980	25.6400 
957.191	0.1182	-0.0767	1.0078	-1.0492	-2.0984	-7.9321	25.6400 
957.210	0.1348	-0.0703	1.0010	-1.1810	-2.4170	-7.8387	25.6200 
957.231	0.1440	-0.0776	1.0029	-1.3348	-2.7686	-7.6904	25.6200 
957.250	0.1440	-0.0850	1.0151	-1.5601	-3.0157	-7.5092	25.6300 
957.270	0.1333	-0.0942	1.0225	-1.8292	-3.0927	-7.3224	25.6400 
957.291	0.1323	-0.0913	1.0078	-2.1753	-3.0707	-7.1356	25.6400 
957.310	0.1206	-0.0874	1.0132	-2.5763	-2.9883	-6.9379	25.6500 
957.330	0.1123	-0.0913	1.0156	-2.9993	-2.8564	-6.7291	25.6400 
957.369	0.1201	-0.1206	1.0278	-3.4937	-2.7081	-6.4380	25.6600 
957.371	0.0938	-0.1152	1.0278	-4.0540	-2.4994	-6.1304	25.6300 
957.389	0.0776	-0.1235	1.0181	-4.7955	-2.2302	-5.8557	25.6400 
957.410	0.0850	-0.1470	1.0078	-5.6470	-1.8787	-5.6525	25.6400 
957.430	0.0791	-0.1841	1.0239	-6.4545	-1.4117	-5.5536	25.6500 
957.450	0.0796	-0.1855	1.0225	-7.1356	-0.8844	-5.5701	25.6400 
957.477	0.0742	-0.2070	1.0361	-7.7454	-0.3516	-5.6854	25.6500 
957.489	0.0635	-0.2017	1.0337	-8.2452	0.0604	-5.8612	25.6500 
957.509	0.0601	-0.2188	1.0249	-8.6572	0.4449	-6.0864	25.6500 
957.532	0.0376	-0.2241	1.0073	-9.1791	0.7965	-6.3391	25.6500 
957.549	0.0337	-0.1997	1.0420	-9.7833	1.1536	-6.6193	25.6600 
957.569	0.0483	-0.1558	1.0552	-10.3931	1.5436	-6.9104	25.6600 
957.624	0.0649	-0.1650	1.0239	-11.5137	1.9006	-7.0313	25.6500 
957.626	0.0625	0.0190	1.1055	-12.9529	2.0709	-6.7126	25.6700 
957.629	0.0103	0.2036	1.2944	-15.5127	2.0764	-5.6470	25.6900 
957.649	0.1221	0.2109	1.8076	-21.8628	2.2357	-4.0869	25.6600 
957.668	0.3667	-0.0063	1.9053	-32.5854	2.5049	-2.6697	25.6600 
957.688	0.3047	0.1597	1.9912	-44.9890	3.0487	-1.1591	25.6600 
957.708	0.9868	-0.5015	4.8481	-53.7122	5.2020	-2.2467	25.6500 
957.728	0.9004	0.7769	1.8130	-53.4045	5.5975	-2.9169	25.6400 
957.748	0.4893	0.6411	0.8403	-49.8065	5.1526	-3.7793	25.6300 
957.768	0.2246	0.4238	0.8774	-45.5493	4.9384	-4.8230	25.6500 
957.818	0.2407	0.3701	1.0630	-40.7483	4.8450	-5.5261	25.6400 
957.821	0.3022	0.1157	1.1299	-35.9308	4.5868	-5.9271	25.6400 
957.828	0.2778	-0.0571	1.1777	-30.6683	4.0594	-6.2732	25.6300 
957.847	0.0879	-0.3193	1.0703	-24.8950	3.1366	-6.7401	25.6400 
957.870	-0.1206	-0.4194	1.1011	-19.1327	2.0874	-7.3828	25.6100 
957.888	-0.4219	-0.5313	1.3716	-13.8098	1.0931	-7.8497	25.6200 
957.907	-0.5049	-0.5322	1.4263	-8.5419	0.2087	-7.8497	25.6200 
957.927	-0.3901	-0.5610	1.4233	-3.2904	-0.6372	-7.1741	25.6300 
957.947	-0.2207	-0.6030	1.4746	1.8292	-1.5820	-6.2238	25.6100 
957.966	0.0039	-0.7104	1.6299	6.6742	-2.6038	-5.3833	25.5900 
958.008	0.0894	-0.8340	1.7471	11.1566	-3.5596	-4.9274	25.6000 
958.011	0.0908	-1.0815	1.8760	15.4083	-4.4769	-5.1086	25.6000 
958.026	0.0947	-1.2441	1.6382	19.8468	-5.5975	-5.2295	25.6000 
958.047	-0.0947	-1.4424	1.0068	24.3457	-6.0974	-5.9766	25.6000 
958.067	-0.4517	-1.6563	0.7329	28.0920	-5.0592	-8.2397	25.6000 
958.088	-0.9253	-2.0737	-0.1177	30.5640	-4.4934	-9.7449	25.6000 
958.109	-0.6763	-2.5405	-0.5361	30.7672	-4.0210	-9.9097	25.6000 
958.126	-0.0542	-0.8765	0.3711	27.7734	-1.8842	-8.1134	25.6000 
958.147	1.3081	0.2793	1.3340	24.0326	-0.8130	-5.6470	25.5700 
958.214	-0.4561	-0.2329	1.2896	19.3909	-0.2472	-4.1583	25.5700 
958.217	-0.5410	-0.0757	2.1235	14.2383	-0.2911	-4.2517	25.5800 
958.217	0.0820	-0.3442	1.8228	8.8220	-1.7798	-3.4991	25.6200 
958.226	-0.0977	-0.0947	1.7178	5.7733	-2.6477	-3.5760	25.6300 
958.246	0.0645	-0.0967	1.2388	4.3121	-2.4609	-3.3893	25.6500 
958.266	0.1074	-0.1182	1.1494	3.2410	-2.2467	-3.1750	25.6300 
958.285	0.1309	-0.0889	1.0601	2.4609	-2.0874	-2.9114	25.6400 
958.307	0.1133	-0.1011	1.0630	1.9006	-1.9391	-2.6587	25.6500 
958.325	0.0942	-0.0850	1.0391	1.4063	-1.9006	-2.4554	25.6300 
958.345	0.1519	-0.0962	1.0229	1.0602	-1.9940	-2.2742	25.6400 
958.365	0.1558	-0.1206	1.0376	0.7251	-2.1918	-2.0544	25.6300 
958.410	0.1445	-0.1123	1.0146	0.3955	-2.3566	-1.8127	25.6400 
958.412	0.1558	-0.1025	1.0063	0.0879	-2.5159	-1.5546	25.6600 
958.425	0.1431	-0.1182	1.0132	-0.2856	-2.6697	-1.2524	25.6500 
958.445	0.1382	-0.1250	1.0078	-0.6537	-2.7740	-0.9338	25.6400 
958.464	0.1411	-0.1260	1.0010	-1.0272	-2.8015	-0.5988	25.6500 
958.484	0.1226	-0.1504	1.0264	-1.4941	-2.7466	-0.2417	25.6400 
958.504	0.1211	-0.1484	1.0205	-2.0380	-2.6093	0.0879	25.6500 
958.527	0.1162	-0.1460	1.0083	-2.6202	-2.3785	0.3845	25.6500 
958.545	0.1206	-0.1450	1.0024	-3.2849	-2.1368	0.6537	25.6500 
958.599	0.1191	-0.1646	0.9990	-3.9496	-1.9006	0.9393	25.6500 
958.601	0.1157	-0.1694	1.0063	-4.6143	-1.6370	1.2195	25.6400 
958.604	0.0986	-0.2021	1.0083	-5.2844	-1.3403	1.4337	25.6400 
958.624	0.1021	-0.2100	1.0083	-5.8722	-1.0162	1.5710	25.6400 
958.644	0.0840	-0.2178	1.0244	-6.3062	-0.6262	1.6315	25.6600 
958.663	0.0747	-0.2275	1.0293	-6.6138	-0.2417	1.6040	25.6500 
958.683	0.0703	-0.2407	1.0547	-6.8829	0.0769	1.4832	25.6600 
958.703	0.0654	-0.2266	1.0449	-7.3279	0.3735	1.3184	25.6400 
958.723	0.0703	-0.2007	1.0332	-8.0640	0.6427	1.1755	25.6500 
958.744	0.0801	-0.2358	1.0308	-9.0033	0.9009	1.1096	25.6500 
958.799	0.0767	-0.1997	1.0254	-10.2777	1.0547	1.2250	25.6600 
958.801	0.0923	-0.0879	1.0840	-11.7609	1.1316	1.6644	25.6500 
958.803	0.0796	0.4312	1.4639	-14.3866	1.1975	2.5323	25.6900 
958.824	0.1826	0.2500	1.9683	-22.2144	1.4557	3.6090	25.6800 
958.843	0.4800	0.1035	1.9272	-34.8102	1.5051	4.8834	25.6500 
958.862	0.4585	-0.7744	3.6709	-47.8070	2.7191	5.7239	25.6400 
958.883	0.7139	0.5723	4.2568	-53.2617	5.3064	4.5593	25.6400 
958.903	0.7871	0.6016	1.1704	-51.6797	6.2292	4.6527	25.6500 
958.922	0.6504	0.4434	0.6470	-48.1311	6.5643	4.4769	25.6500 
958.942	0.6650	0.2798	0.7070	-43.8354	6.4215	4.1089	25.6300 
958.967	0.6670	0.2603	0.8848	-39.1553	5.7294	3.4991	25.6400 
958.981	0.3696	0.0972	1.0737	-34.4531	4.7791	2.4719	25.6400 
959.002	0.0708	-0.0415	1.0825	-29.0204	3.8397	1.2634	25.6300 
959.036	-0.2632	-0.3247	1.0933	-22.8900	3.0817	0.4504	25.6100 
959.041	-0.2441	-0.5049	1.1338	-16.5179	2.2412	0.4559	25.6500 
959.062	-0.0298	-0.7295	1.3682	-10.7776	0.9833	1.1920	25.6200 
959.081	0.0713	-0.7822	1.4849	-5.3998	-0.4779	2.0435	25.6100 
959.101	0.1050	-0.7505	1.4644	-0.3076	-2.0215	2.6477	25.6100 
959.121	0.0708	-0.7388	1.5469	4.3945	-3.5266	2.9663	25.6100 
959.141	0.1494	-0.7266	1.6641	8.7012	-5.0757	3.1586	25.5900 
959.161	0.3193	-0.7246	1.6616	12.8101	-6.5753	3.2684	25.6000 
959.182	0.4966	-0.8091	1.6904	16.6498	-7.8387	3.0707	25.5900 
959.221	0.4902	-0.9121	1.6538	20.3412	-8.9099	2.3291	25.6100 
959.224	0.2251	-1.0537	1.1807	23.9832	-9.9976	1.0052	25.5900 
959.241	-0.2725	-1.0791	0.9263	27.6251	-10.3052	-1.6919	25.5900 
959.261	-0.7466	-1.3892	0.7197	30.7452	-9.6460	-5.2789	25.5800 
959.280	-1.0601	-1.4751	0.2295	33.0963	-8.6682	-7.5037	25.6000 
959.300	-0.3936	-1.3667	0.4414	33.6456	-7.8662	-7.8442	25.5800 
959.321	0.0552	-1.2363	0.9185	33.0469	-7.8113	-6.3721	25.6000 
959.340	0.8340	-0.7280	-0.0396	32.2284	-8.1464	-3.7573	25.6000 
959.361	0.5156	-0.3545	0.5703	30.0916	-7.1631	-1.3458	25.5700 
959.408	-0.0352	0.5005	-0.0469	27.6086	-4.8450	-0.2966	25.5800 
959.411	-1.4922	-0.1328	1.3882	23.1097	-2.3676	0.0055	25.5700 
959.420	0.6597	0.6636	2.1665	17.7484	-2.0599	0.2362	25.5700 
959.440	0.6909	-1.2163	2.8311	10.9259	-3.8342	1.3403	25.5800 
959.461	0.4092	-0.1440	1.1211	7.9651	-4.7900	1.0217	25.6200 
959.479	0.0835	-0.0215	1.1240	6.7401	-4.7681	1.0657	25.6300 
959.499	0.0977	-0.1030	1.1021	5.8282	-4.5813	1.3293	25.6300 
959.519	0.0752	-0.1206	1.0913	4.9878	-4.2242	1.5491	25.6200 
959.539	0.0811	-0.1309	1.0757	4.3011	-4.0210	1.6809	25.6300 
959.561	0.1357	-0.1245	1.0381	3.6530	-4.0045	1.8182	25.6300 
959.597	0.1416	-0.1357	1.0293	3.0927	-4.0759	2.0325	25.6300 
959.599	0.1230	-0.1367	1.0332	2.6038	-4.2078	2.2687	25.6500 
959.619	0.1221	-0.1206	1.0059	2.1588	-4.3066	2.5159	25.6300 
959.640	0.1240	-0.1357	1.0122	1.7358	-4.3781	2.7686	25.6300 
959.659	0.1182	-0.1401	1.0039	1.2634	-4.4879	3.0542	25.6300 
959.679	0.1499	-0.1655	1.0024	0.7800	-4.4879	3.3783	25.6300 
959.698	0.0435	-0.1074	0.8945	0.2142	-4.3451	3.6639	25.6300 
959.718	0.0728	-0.1929	1.0576	-0.5603	-4.1418	3.9661	25.6300 
959.738	0.1089	-0.1963	1.0195	-1.4832	-3.9221	4.2297	25.6300 
959.758	0.1084	-0.1958	1.0010	-2.4225	-3.6584	4.4769	25.6300 
959.778	0.1104	-0.2144	1.0103	-3.2080	-3.4332	4.7021	25.6400 
959.798	0.0991	-0.2524	1.0210	-3.8397	-3.2520	4.8999	25.6400 
959.832	0.1021	-0.2173	0.9922	-4.3066	-3.0487	5.0647	25.6300 
959.838	0.0928	-0.2192	0.9971	-4.5758	-2.7191	5.1855	25.6500 
959.858	0.0728	-0.2236	1.0098	-4.7845	-2.3730	5.2515	25.6500 
959.878	0.0708	-0.2529	1.0215	-5.1581	-2.1094	5.2789	25.6500 
959.898	0.0615	-0.2690	1.0234	-5.6799	-1.9775	5.2240	25.6600 
959.917	0.0688	-0.2544	1.0220	-6.0919	-1.8732	5.1141	25.6500 
959.937	0.0840	-0.2505	1.0371	-6.5918	-1.7303	4.9988	25.6300 
959.957	0.0918	-0.2446	1.0278	-7.5146	-1.5491	4.9933	25.6400 
959.977	0.0781	-0.2300	1.0073	-8.7616	-1.3239	5.1471	25.6600 
960.019	0.0557	0.0405	1.0703	-10.1184	-1.0217	5.6250	25.6600 
960.020	0.0420	0.3652	1.3237	-12.6123	-0.8679	6.8225	25.6700 
960.037	0.0083	-0.0605	1.9004	-19.7479	-0.7581	8.5364	25.6700 
960.057	0.2402	-0.0942	1.8623	-31.3440	-0.9998	10.6073	25.6600 
960.077	0.5894	0.1978	1.0898	-43.5828	-0.6482	12.5903	25.6600 
960.097	0.4673	-1.6294	4.4658	-55.0415	2.4280	12.3322	25.6400 
960.117	1.0752	0.5835	3.0542	-57.9034	4.2627	12.0905	25.6400 
960.136	0.8755	0.4697	1.4355	-55.7007	4.5428	12.0135	25.6500 
960.157	0.4565	0.2275	0.6514	-50.9766	4.4604	10.8270	25.6500 
960.211	0.3428	0.1704	0.8188	-45.4230	4.4165	9.1956	25.6400 
960.216	0.2559	-0.0156	1.1602	-40.0067	4.3011	7.9541	25.6400 
960.220	0.2310	-0.1353	1.1519	-33.9203	3.9056	7.2015	25.6300 
960.236	0.0757	-0.3726	0.8193	-27.1692	3.1696	6.7566	25.6000 
960.256	-0.0479	-0.5171	0.7808	-20.5719	2.2412	6.3556	25.6100 
960.276	-0.1968	-0.6187	1.1938	-15.0568	1.2085	5.9821	25.6100 
960.296	-0.2769	-0.6196	1.5557	-9.9261	0.3186	5.6854	25.6100 
960.315	-0.3066	-0.6738	1.6514	-4.5264	-0.4559	5.6799	25.6000 
960.335	-0.2720	-0.7124	1.5244	1.0382	-1.3898	5.8997	25.6000 
960.357	-0.0479	-0.8330	1.6079	6.3666	-2.7411	6.3446	25.5900 
960.377	0.1680	-0.9346	1.6763	11.4587	-4.3396	6.7786	25.5800 
960.395	0.3188	-1.1841	1.6421	16.3422	-5.9985	7.0093	25.5800 
960.415	0.2305	-1.3203	1.6021	21.2805	-7.6410	7.0422	25.5900 
960.449	-0.0840	-1.5313	1.3335	26.1969	-9.1187	6.3446	25.5800 
960.455	-0.4180	-1.9170	0.6929	30.5145	-9.0582	4.3231	25.5700 
960.474	-1.0415	-2.4517	0.0205	32.9260	-7.0532	2.3291	25.5900 
960.494	-1.0527	-3.2886	-0.8042	33.0304	-4.9054	1.7908	25.5800 
960.515	-0.5166	-0.2090	0.9053	29.6686	-2.1313	3.2135	25.5400 
960.534	0.4746	-0.1187	2.4897	24.4830	-1.2250	4.6033	25.5400 
960.554	0.0332	-0.2173	2.2358	19.5776	-1.3239	5.8777	25.5500 
960.574	0.5742	-1.2002	2.6123	14.6667	-1.8292	6.5588	25.5700 
960.594	-0.2202	-0.1455	1.7798	10.2448	-3.0267	6.5149	25.6000 
960.635	0.0996	-0.1372	1.3037	7.8717	-3.7628	6.3611	25.6200 
960.638	0.0688	-0.1001	1.1387	6.8829	-3.9111	6.3007	25.6100 
960.654	0.0967	-0.0928	1.0664	6.1743	-4.0540	6.3116	25.6100 
960.674	0.1055	-0.0879	1.0513	5.6525	-4.2627	6.3062	25.6100 
960.694	0.0947	-0.0947	1.0498	5.2130	-4.5483	6.2567	25.6200 
960.714	0.1665	-0.1055	1.0386	4.7736	-4.9274	6.2457	25.6300 
960.734	0.1782	-0.1089	1.0176	4.3671	-5.2679	6.3336	25.6100 
960.753	0.1709	-0.0952	0.9897	4.0265	-5.5371	6.4655	25.6200 
960.775	0.1670	-0.0942	0.9824	3.6310	-5.6689	6.6577	25.6100 
960.823	0.1523	-0.1104	1.0044	3.1915	-5.6854	6.8719	25.6000 
960.827	0.1426	-0.1235	1.0142	2.7356	-5.6085	7.0972	25.6000 
960.833	0.1592	-0.1309	0.9990	2.2137	-5.3888	7.3553	25.6200 
960.853	0.1470	-0.1128	0.9966	1.6699	-5.0592	7.6300	25.6300 
960.873	0.1118	-0.1548	1.0288	1.0217	-4.6582	7.9431	25.6100 
960.893	0.0933	-0.1689	1.0361	0.2802	-4.1803	8.2397	25.6200 
960.913	0.0962	-0.1577	1.0142	-0.4559	-3.7299	8.4869	25.6200 
960.932	0.0947	-0.1704	1.0098	-1.1426	-3.3618	8.6847	25.6100 
960.952	0.0977	-0.1753	1.0098	-1.8457	-2.9938	8.8165	25.6200 
960.972	0.0967	-0.1709	0.9995	-2.4994	-2.5708	8.8934	25.6200 
960.992	0.0762	-0.2212	1.0332	-3.0652	-2.0599	8.8989	25.6200 
961.014	0.0674	-0.2051	1.0391	-3.5156	-1.5271	8.8550	25.6300 
961.082	0.0542	-0.2412	1.0269	-3.9716	-0.9998	8.7341	25.6200 
961.086	0.0444	-0.2466	1.0200	-4.3890	-0.4834	8.5474	25.6200 
961.086	0.0381	-0.1978	1.0469	-4.7351	-0.0934	8.3112	25.6500 
961.092	0.0474	-0.1851	1.0547	-5.2460	0.2087	8.0750	25.6400 
961.111	0.1484	-0.0820	0.9702	-6.2073	0.5328	8.0530	25.6300 
961.131	0.0996	0.2993	1.0767	-7.4432	0.7251	8.5474	25.6700 
961.151	0.1265	0.3784	1.4775	-10.9314	0.7855	10.0854	25.6800 
961.171	0.3140	0.1655	2.1108	-19.9786	1.5381	12.8485	25.6500 
961.194	0.4951	-0.0005	1.9536	-33.6401	3.4058	16.0730	25.6400 
961.211	0.3691	-0.0962	2.3135	-47.6862	6.9434	18.8580	25.6400 
961.231	1.0967	-0.4116	4.7544	-57.2552	11.3324	19.9841	25.6200 
961.280	1.7290	0.4331	2.2476	-56.4587	12.4255	22.5055	25.6100 
961.283	1.2910	0.0713	0.9834	-51.5808	10.8929	24.0436	25.6100 
961.291	0.5166	-0.0771	0.3931	-45.9229	8.3167	23.2141	25.6400 
961.311	0.1348	-0.0850	0.6274	-40.9076	6.0754	21.0114	25.6300 
961.331	-0.1880	-0.1323	1.1489	-35.5902	4.1968	18.8306	25.6100 
961.350	-0.2920	-0.2539	1.3135	-29.3500	2.5598	17.1167	25.6000 
961.370	-0.3047	-0.4365	1.1055	-22.5330	1.2250	15.9027	25.6000 
961.392	-0.3008	-0.5488	0.9932	-15.8643	0.1099	15.1007	25.6100 
961.410	-0.2969	-0.6294	0.9912	-9.9261	-0.9503	14.6613	25.6100 
961.431	-0.2485	-0.6426	1.2246	-4.4440	-1.9830	14.5569	25.5900 
961.476	0.0381	-0.6196	1.5337	0.7361	-3.1091	14.8755	25.5700 
961.478	0.1958	-0.6055	1.5649	5.7404	-4.4385	15.1172	25.5800 
961.490	0.2256	-0.6118	1.6582	10.5414	-5.8887	14.7821	25.5700 
961.510	0.2402	-0.6631	1.7368	15.0952	-7.3334	13.9087	25.5800 
961.529	0.3516	-0.8179	2.0034	19.4019	-8.5693	12.4860	25.5700 
961.549	0.3462	-0.8984	1.8252	23.8293	-9.3494	10.7117	25.5500 
961.570	-0.0547	-1.0776	1.1353	28.3502	-9.9097	8.8879	25.5500 
961.590	-0.3149	-1.3618	0.8394	32.6514	-9.7064	5.7129	25.5600 
961.609	-1.2593	-2.3794	0.6128	35.7056	-8.5034	1.9336	25.5600 
961.671	-1.1846	-2.2168	-0.2183	37.5842	-8.0255	-0.7196	25.5600 
961.673	-0.3252	-1.5850	0.5811	36.9360	-7.1466	-1.6205	25.5500 
961.673	-0.6265	-1.0288	0.9390	34.1016	-4.7626	-0.9174	25.5500 
961.689	0.3423	0.6440	0.3267	30.7892	-3.0048	1.2689	25.5400 
961.710	0.9619	0.1670	0.6050	26.9495	-1.7853	3.5101	25.5400 
961.728	-1.0190	-0.0142	1.1519	21.7584	-0.6152	3.8947	25.5400 
961.749	0.7954	0.6333	2.2368	15.7269	-1.0162	4.1254	25.5400 
961.768	-0.5229	-0.2583	2.6177	9.1461	-2.2247	4.6747	25.5900 
961.789	0.2080	-0.1909	1.2886	7.1356	-2.4225	4.6417	25.6000 
961.809	0.1445	-0.1079	1.0957	6.4325	-2.3840	4.6088	25.6000 
961.861	0.1001	-0.1113	1.0815	5.8832	-2.4445	4.6362	25.5800 
961.863	0.1450	-0.0776	1.0288	5.4712	-2.4390	4.6912	25.5900 
961.868	0.1367	-0.0791	0.9854	5.0427	-2.3291	4.7681	25.5900 
961.888	0.0928	-0.0698	1.0112	4.5319	-2.2357	4.8175	25.5900 
961.908	0.1514	-0.0889	1.0020	4.0869	-2.2961	4.8779	25.5900 
961.928	0.1270	-0.1152	1.0166	3.6090	-2.5159	5.0098	25.5900 
961.948	0.1152	-0.1455	1.0493	3.1201	-2.7576	5.1636	25.5900 
961.968	0.1240	-0.1045	1.0103	2.7466	-2.9498	5.3394	25.6000 
961.987	0.1338	-0.1167	1.0024	2.3511	-3.0707	5.5426	25.5900 
962.009	0.1191	-0.1177	1.0083	1.9116	-3.1201	5.7788	25.5900 
962.060	0.1138	-0.1289	1.0029	1.3843	-3.1311	6.0480	25.5800 
962.063	0.0952	-0.1548	1.0322	0.7031	-3.0157	6.3556	25.6000 
962.067	0.1011	-0.1680	1.0264	-0.0494	-2.7631	6.6522	25.6000 
962.086	0.1035	-0.1660	1.0073	-0.9723	-2.4335	6.9269	25.6100 
962.106	0.1104	-0.1670	1.0078	-1.9720	-2.0709	7.2070	25.6000 
962.127	0.0879	-0.1792	0.9985	-2.9388	-1.6974	7.4432	25.5900 
962.147	0.0605	-0.2266	1.0195	-3.9111	-1.2634	7.6135	25.6000 
962.167	0.0728	-0.2520	1.0176	-4.5978	-0.6812	7.6685	25.6000 
962.186	0.0659	-0.2358	1.0161	-4.9164	-0.0714	7.6355	25.5900 
962.207	0.0547	-0.2563	1.0083	-5.1196	0.4175	7.4982	25.6100 
962.248	0.0415	-0.2422	1.0366	-5.2570	0.8405	7.2949	25.6200 
962.250	0.0513	-0.2134	1.0645	-5.4272	1.2085	7.0258	25.6200 
962.266	0.0840	-0.1699	1.0679	-5.8777	1.5381	6.8390	25.6100 
962.286	0.1147	-0.0620	0.9912	-7.0093	1.9336	6.9434	25.6100 
962.306	0.0811	0.1113	1.1265	-8.4924	2.2137	7.6355	25.6200 
962.326	0.0176	0.5254	1.7520	-12.5958	2.4500	9.4208	25.6300 
962.346	0.2485	-0.0605	1.9199	-23.0219	3.2904	11.8542	25.6300 
962.366	0.5703	0.2910	2.0176	-37.3096	4.3835	14.3372	25.6000 
962.386	0.7451	-2.4995	4.4932	-50.6250	7.4542	15.3864	25.6100 
962.409	1.4053	0.4556	3.9370	-54.2725	9.2340	15.3369	25.5800 
962.425	0.8379	0.4214	0.9897	-51.8225	8.8165	15.0183	25.6000 
962.445	0.4209	0.2778	0.2896	-47.4500	7.5311	13.6505	25.5900 
962.486	0.2607	0.2373	0.5361	-43.2697	6.2292	12.0135	25.5900 
962.488	0.2725	0.2314	1.1177	-39.7650	5.0482	10.5963	25.5800 
962.505	0.2192	0.0283	1.5059	-35.2496	3.5651	9.3494	25.5700 
962.525	0.1011	-0.1680	1.2900	-29.2676	1.8842	7.9871	25.5800 
962.545	-0.1152	-0.4209	1.1689	-22.7472	0.5548	6.4325	25.5800 
962.564	-0.2227	-0.5493	1.0840	-16.6168	-0.2966	5.0482	25.5700 
962.585	-0.2246	-0.6782	1.1333	-10.7501	-0.9888	4.1803	25.5800 
962.604	-0.1699	-0.7002	1.3291	-4.9933	-1.7029	3.8727	25.5700 
962.624	0.0278	-0.7358	1.5728	0.6317	-2.5543	4.0045	25.5700 
962.678	0.2139	-0.7446	1.6108	5.9656	-3.7079	4.3176	25.5600 
962.680	0.3081	-0.8291	1.9336	10.9973	-4.8669	4.2737	25.5700 
962.684	0.1772	-0.8926	1.9980	16.0950	-5.5536	3.8013	25.5600 
962.704	0.0942	-1.0200	1.8911	21.2091	-6.0370	3.3014	25.5400 
962.724	0.0063	-1.1943	1.7241	26.3727	-7.1411	3.4882	25.5400 
962.745	-0.1597	-1.6118	1.0107	31.2286	-8.7341	3.4827	25.5500 
962.764	-0.5430	-2.1924	0.4937	35.4309	-8.7341	2.0435	25.5300 
962.784	-0.7368	-2.3477	-1.0757	37.9193	-8.3826	0.8899	25.5500 
962.804	-0.4009	-2.4502	-0.8203	36.8646	-7.1301	1.3293	25.5500 
962.824	-0.0962	-0.3979	0.8267	32.3767	-3.7848	3.5431	25.5200 
962.871	0.7334	0.0078	1.5239	27.1692	-1.6589	5.8447	25.5200 
962.873	-1.2817	-0.2305	1.9956	22.2198	-0.4120	6.2073	25.5000 
962.883	0.7588	-0.9102	3.6362	17.1606	-0.7196	6.4984	25.5200 
962.903	-0.4312	-0.0200	1.9604	12.4695	-2.0654	6.6907	25.5700 
962.923	0.3013	-0.1606	1.2607	10.1294	-2.8619	6.5973	25.5800 
962.943	0.1621	-0.1226	1.1157	8.8055	-3.0432	6.6577	25.5900 
962.963	0.1255	-0.0830	1.0693	8.0365	-3.2025	6.8610	25.5800 
962.982	0.0781	-0.1079	1.0991	7.3828	-3.3453	7.0148	25.5800 
963.002	0.0918	-0.1030	1.0479	6.6742	-3.5541	7.0917	25.5800 
963.022	0.1406	-0.1060	1.0503	6.0370	-3.7244	7.1576	25.5600 
963.063	0.1885	-0.1362	1.0376	5.4657	-3.8782	7.3224	25.5700 
963.065	0.1489	-0.1201	1.0200	5.0317	-4.0375	7.5366	25.5700 
963.082	0.1362	-0.1138	1.0107	4.6692	-4.1638	7.7399	25.5900 
963.102	0.1519	-0.1133	0.9976	4.3176	-4.2572	7.9541	25.5700 
963.122	0.1416	-0.1289	0.9961	3.9221	-4.3286	8.2068	25.5700 
963.142	0.1377	-0.1328	0.9985	3.5980	-4.3726	8.4760	25.5600 
963.162	0.1230	-0.1294	1.0078	3.2739	-4.3945	8.7231	25.5700 
963.182	0.1367	-0.1455	1.0103	2.8564	-4.3726	8.9703	25.5700 
963.201	0.1260	-0.1616	1.0259	2.3181	-4.2572	9.2340	25.5700 
963.223	0.1206	-0.1450	0.9995	1.6974	-4.0375	9.4647	25.5700 
963.241	0.1274	-0.1426	0.9937	1.0327	-3.7079	9.6844	25.5700 
963.261	0.1226	-0.1523	1.0083	0.3625	-3.2135	9.8877	25.5500 
963.301	0.1172	-0.1509	1.0020	-0.3735	-2.5983	10.0964	25.5700 
963.304	0.0830	-0.2329	1.0337	-1.1646	-1.9061	10.2722	25.5700 
963.321	0.0688	-0.2236	1.0166	-1.6864	-1.2469	10.3766	25.5700 
963.341	0.0464	-0.2095	1.0273	-1.8402	-0.8295	10.3656	25.5800 
963.361	0.0444	-0.2158	1.0439	-1.9501	-0.5768	10.2173	25.5700 
963.381	0.0625	-0.2168	1.0640	-2.3126	-0.3680	9.9921	25.5700 
963.400	0.0562	-0.1846	1.0669	-2.9553	-0.1263	9.7998	25.5700 
963.421	0.0723	-0.1509	1.0781	-4.0155	0.1538	9.6680	25.5700 
963.440	0.1128	0.0527	1.0195	-5.5536	0.5273	9.7284	25.5800 
963.464	0.0508	0.3101	1.3359	-8.0090	0.8405	10.4150	25.6000 
963.505	-0.0435	0.4360	2.0415	-13.0682	1.3348	11.5961	25.6000 
963.507	0.1401	0.1133	2.0542	-22.7582	2.7136	12.6233	25.5700 
963.520	0.5952	0.5410	1.5313	-36.8262	4.1199	13.1067	25.5800 
963.540	0.2451	-1.1396	4.8164	-47.6257	5.3339	14.0021	25.5900 
963.560	1.1724	0.9980	3.3018	-50.7678	6.7841	14.9249	25.5600 
963.580	1.0679	0.7417	1.3325	-48.1311	7.2125	15.4248	25.5600 
963.600	0.6709	0.4194	0.7080	-43.3850	7.1301	14.7656	25.5500 
963.622	0.4600	0.2744	0.9478	-38.1226	6.7072	13.5791	25.5600 
963.639	0.2910	0.0317	1.3965	-32.6788	5.8337	12.5629	25.5400 
963.690	0.2070	-0.1846	1.4014	-26.5320	4.5813	11.6730	25.5500 
963.692	-0.0605	-0.4536	0.9536	-19.7369	3.3124	10.6512	25.5400 
963.699	-0.2266	-0.6133	0.9351	-13.0792	2.2192	9.6790	25.5600 
963.719	-0.1240	-0.7319	1.3115	-7.0807	1.1261	9.2230	25.5400 
963.739	0.0000	-0.7437	1.4253	-1.7029	-0.1099	9.1241	25.5200 
963.758	-0.1499	-0.7759	1.4233	3.2574	-1.3568	8.7177	25.5300 
963.779	-0.2974	-0.7930	1.4082	8.0530	-2.5708	7.9486	25.5200 
963.799	-0.3247	-0.8677	1.6064	12.6727	-3.7299	7.2070	25.5000 
963.819	-0.1899	-0.9058	1.7217	17.1826	-4.6747	6.8060	25.5100 
963.838	0.0181	-0.9922	1.7007	21.6046	-5.2954	6.8225	25.5100 
963.880	0.1973	-1.1738	1.5659	26.0046	-6.1523	7.3773	25.4900 
963.884	0.2363	-1.5469	1.0308	30.2783	-7.1631	7.5476	25.5000 
963.898	0.1104	-1.8413	0.6997	33.9587	-8.1409	6.8994	25.5000 
963.918	-0.7065	-2.2217	0.0898	36.4691	-8.2672	5.2625	25.5100 
963.938	-1.1821	-2.8247	-0.5225	36.6888	-6.3281	3.5541	25.4900 
963.958	-0.7856	-0.0078	0.2256	33.4259	-3.7573	4.5099	25.4800 
963.978	0.2173	0.0718	2.0396	28.2788	-2.2852	6.4105	25.4700 
963.997	-0.1060	-0.2661	2.0249	23.0548	-2.0984	8.2507	25.4700 
964.017	0.6372	0.0298	2.3203	17.6550	-2.3676	8.6957	25.4700 
964.076	-0.4883	-0.1108	1.8032	12.3376	-3.3453	9.3549	25.5400 
964.080	0.1821	-0.1831	1.4771	8.9868	-4.7076	9.0747	25.5300 
964.080	0.0864	-0.1050	1.1880	7.7069	-5.1306	8.8330	25.5300 
964.097	0.0747	-0.0923	1.1138	6.8665	-5.2020	8.7231	25.5400 
964.118	0.0923	-0.0806	1.0684	6.4600	-5.2899	8.6572	25.5300 
964.137	0.1270	-0.0835	1.0352	6.3116	-5.4932	8.5748	25.5300 
964.157	0.1245	-0.0586	1.0186	6.2402	-5.7349	8.4979	25.5400 
964.177	0.1323	-0.0557	0.9976	6.0370	-5.9711	8.4210	25.5400 
964.197	0.1641	-0.0571	0.9829	5.7074	-6.3007	8.4045	25.5100 
964.217	0.1621	-0.0894	0.9976	5.3613	-6.6467	8.4540	25.5200 
964.273	0.1592	-0.0908	1.0068	5.0482	-6.9818	8.4979	25.5400 
964.276	0.1777	-0.0908	1.0039	4.8560	-7.3114	8.5364	25.5300 
964.280	0.1963	-0.1045	1.0083	4.5703	-7.5531	8.6188	25.5400 
964.296	0.1875	-0.0947	1.0000	4.0924	-7.6300	8.7506	25.5200 
964.316	0.1743	-0.0918	1.0068	3.6530	-7.5641	8.9044	25.5400 
964.336	0.1670	-0.0986	1.0107	3.2355	-7.4377	9.0692	25.5300 
964.356	0.1680	-0.0928	1.0142	2.8125	-7.2949	9.2560	25.5400 
964.375	0.1748	-0.0942	0.9805	2.2906	-7.1411	9.5142	25.5200 
964.396	0.1309	-0.1182	0.9927	1.5491	-6.8445	9.8547	25.5400 
964.416	0.1157	-0.1216	0.9956	0.6976	-6.3995	10.1788	25.5400 
964.437	0.0908	-0.1440	1.0127	-0.2966	-5.7788	10.4041	25.5200 
964.455	0.0840	-0.2026	1.0527	-1.5271	-5.0757	10.4974	25.5400 
964.475	0.1211	-0.2388	1.0425	-2.8729	-4.4385	10.4645	25.5400 
964.514	0.1294	-0.2246	1.0366	-3.9276	-3.8672	10.3766	25.5400 
964.516	0.0991	-0.2598	1.0605	-4.5978	-3.4167	10.2722	25.5400 
964.535	0.0967	-0.2002	1.0894	-5.2020	-3.0103	10.1843	25.5500 
964.554	0.1147	-0.1777	1.0591	-6.1029	-2.6038	10.1843	25.5400 
964.574	0.0864	0.0449	1.0986	-7.7454	-2.2632	10.3986	25.5500 
964.594	-0.0068	0.5381	1.6128	-10.8820	-1.9336	11.2830	25.5700 
964.614	0.2710	0.3223	1.9771	-17.7100	-1.7633	12.8156	25.5700 
964.634	0.6816	0.2217	1.7397	-30.3442	-1.3458	14.5294	25.5600 
964.655	0.5220	-0.0952	3.6318	-43.6157	1.5271	14.8810	25.5300 
964.700	0.5547	0.6675	4.3257	-48.2629	5.0647	13.2880	25.5100 
964.702	0.9771	0.7900	0.8789	-46.2085	5.6415	14.2328	25.5200 
964.716	0.9541	0.5259	0.5674	-42.8467	5.1526	14.6448	25.5300 
964.734	0.6338	0.3589	1.0488	-39.4849	4.6088	13.5571	25.5300 
964.754	0.3403	0.2373	1.2539	-35.1837	3.8068	11.9092	25.5100 
964.774	0.0576	-0.0391	1.2285	-29.8773	2.6312	10.5194	25.5100 
964.794	-0.0605	-0.2212	1.1157	-24.0491	1.3788	9.4647	25.5000 
964.814	-0.2119	-0.4233	1.1416	-18.1219	0.2966	8.6957	25.5000 
964.833	-0.2319	-0.4878	1.2261	-12.4091	-0.7306	8.3221	25.5000 
964.890	-0.2500	-0.5752	1.3862	-6.9269	-1.7139	8.2507	25.5000 
964.892	-0.1978	-0.6016	1.4727	-1.5381	-2.7191	8.4210	25.5100 
964.895	-0.1333	-0.6040	1.5122	3.7299	-3.7738	8.6298	25.5000 
964.913	-0.0498	-0.6157	1.6064	8.7396	-4.8120	8.8000	25.4800 
964.934	0.0132	-0.6982	1.7085	13.4692	-5.8008	8.9264	25.4900 
964.953	0.1279	-0.7822	1.7544	18.0011	-6.9598	9.1132	25.4800 
964.973	0.3682	-0.9565	1.5972	22.4231	-8.4210	9.3164	25.4800 
964.994	0.3843	-1.1006	1.4219	26.7682	-9.8328	9.0802	25.4800 
965.013	-0.0742	-1.3838	1.0010	30.9210	-10.8984	7.9651	25.4600 
965.032	-0.5024	-1.7656	0.7983	34.6124	-10.5908	5.5316	25.4800 
965.083	-1.2324	-2.3296	0.2090	37.1777	-9.2615	3.0267	25.4900 
965.086	-0.9785	-2.4326	-0.3521	37.3535	-8.1024	2.2742	25.4700 
965.092	-0.4995	-0.5830	0.2573	34.1016	-5.7898	4.1364	25.4600 
965.112	1.0596	0.4238	1.1782	29.8444	-4.5978	6.9653	25.4300 
965.132	0.0308	-0.3076	1.4600	24.7302	-4.1748	9.0363	25.4200 
965.152	0.0117	-0.1851	2.3008	19.1602	-4.2792	9.4702	25.4300 
965.172	-0.2178	-0.2334	1.9526	13.6670	-5.3833	10.2393	25.4800 
965.192	-0.1279	-0.1650	1.8027	10.1624	-6.5149	9.7998	25.4900 
965.212	0.0972	-0.0742	1.2349	8.5803	-6.8005	9.5416	25.5000 
965.232	0.1240	-0.0728	1.1689	7.8827	-6.8335	9.3988	25.5200 
965.255	0.1274	-0.0503	1.0532	7.5421	-6.9379	9.3329	25.5100 
965.271	0.1455	-0.0508	1.0527	7.2180	-7.2455	9.2670	25.5000 
965.323	0.1304	-0.0469	1.0405	6.8774	-7.7124	9.1956	25.5100 
965.326	0.1572	-0.0337	1.0112	6.7017	-8.3167	9.0857	25.5100 
965.331	0.2363	-0.0479	0.9663	6.5424	-9.0088	9.0253	25.5100 
965.352	0.2539	-0.0469	0.9380	6.4709	-9.6899	9.0417	25.5000 
965.371	0.2261	-0.0576	0.9800	6.2952	-10.1953	9.0802	25.5100 
965.390	0.2222	-0.0703	0.9990	6.1304	-10.5688	9.1187	25.5100 
965.411	0.2109	-0.0742	1.0249	6.0260	-10.7941	9.1296	25.5100 
965.431	0.2319	-0.0498	0.9746	5.8832	-10.9204	9.1132	25.5200 
965.450	0.2490	-0.0366	0.9443	5.5756	-10.8929	9.1351	25.5100 
965.470	0.2500	-0.0552	0.9712	5.0867	-10.6677	9.2120	25.5100 
965.515	0.2485	-0.0913	1.0171	4.3671	-10.3217	9.3384	25.5200 
965.517	0.2310	-0.0962	1.0254	3.5925	-9.9811	9.5032	25.5000 
965.531	0.1904	-0.1040	1.0151	2.8455	-9.7723	9.6954	25.5000 
965.550	0.2100	-0.0845	0.9717	2.2137	-9.6680	9.9042	25.5000 
965.570	0.1914	-0.0884	0.9551	1.6479	-9.4482	10.1019	25.5100 
965.590	0.2051	-0.0776	0.9546	0.9448	-9.0857	10.3217	25.5100 
965.609	0.2227	-0.1377	0.9980	0.0000	-8.5089	10.6458	25.5000 
965.630	0.1914	-0.1704	1.0103	-1.1536	-7.7783	11.0358	25.5100 
965.650	0.1328	-0.2002	1.0273	-2.3785	-7.0093	11.3928	25.5000 
965.704	0.1279	-0.2686	1.0532	-3.4827	-6.2622	11.6675	25.5100 
965.707	0.0762	-0.2612	1.0732	-4.1638	-5.5481	11.7334	25.5000 
965.709	0.1147	-0.2183	1.0713	-4.6527	-4.9438	11.6785	25.5000 
965.729	0.1011	-0.2061	1.0742	-5.3998	-4.4165	11.6180	25.5100 
965.749	0.0967	-0.1812	1.0962	-6.6083	-3.9166	11.5961	25.5000 
965.769	0.1167	-0.0322	1.0317	-8.4760	-3.4607	11.7773	25.5100 
965.789	0.1094	0.0850	1.2041	-11.0358	-2.9993	12.2772	25.5200 
965.809	0.1299	0.4531	2.0142	-16.8860	-2.3621	13.3319	25.5200 
965.829	0.0986	-0.0200	1.9224	-27.6581	-2.1478	14.6173	25.5100 
965.849	0.6841	0.3716	1.3462	-41.7151	-2.7795	16.4850	25.5100 
965.894	0.8511	-2.0527	4.3862	-54.6844	-1.0602	16.6937	25.5000 
965.899	1.1128	0.6201	4.2095	-57.6343	1.2360	14.8535	25.4900 
965.909	0.7422	0.6055	1.2798	-54.4318	2.1259	13.4253	25.4900 
965.928	0.5796	0.3418	0.7998	-49.3945	2.6642	11.9037	25.4900 
965.949	0.6226	0.1123	1.0137	-44.2419	3.1036	10.5029	25.5000 
965.968	0.5938	0.0264	1.0513	-38.2764	3.2190	9.2615	25.4800 
965.988	0.3862	-0.1523	0.9331	-31.8054	2.8455	8.1628	25.4800 
966.008	0.1841	-0.2778	1.0537	-25.3510	2.0819	7.1521	25.4700 
966.036	-0.0913	-0.4375	1.2651	-18.7756	1.0657	6.3007	25.4500 
966.048	-0.2124	-0.5479	1.3193	-12.2058	-0.0659	5.7019	25.4500 
966.067	-0.1660	-0.6724	1.4038	-5.9326	-1.1810	5.3723	25.4600 
966.087	-0.0864	-0.6758	1.5093	-0.0220	-2.1149	5.2075	25.4600 
966.137	-0.0488	-0.7036	1.6685	5.5261	-3.1036	4.9493	25.4500 
966.140	-0.0288	-0.7651	1.7817	10.8051	-4.1199	4.3561	25.4400 
966.147	-0.0562	-1.0005	1.9165	15.7764	-4.6692	3.4387	25.4400 
966.167	-0.1182	-1.2485	1.9351	20.5115	-4.5978	2.2797	25.4500 
966.187	-0.1582	-1.6147	1.3809	25.3839	-3.8287	0.5219	25.4500 
966.207	-0.1699	-1.8423	0.7529	29.8883	-2.9333	-1.1810	25.4400 
966.227	-0.4448	-2.2607	0.3032	33.0853	-1.8951	-2.8839	25.4400 
966.247	-0.5884	-2.4233	0.1104	34.8157	-0.9174	-4.3616	25.4200 
966.267	-0.5127	-2.6372	-0.3838	33.4149	0.3021	-4.4824	25.4200 
966.286	0.0371	-0.6821	0.2104	29.7894	2.1204	-3.2849	25.4100 
966.324	0.9761	-0.2466	1.7446	25.0378	2.3291	-1.0327	25.4000 
966.326	-0.4849	-0.2593	1.4355	19.9072	2.5873	-0.0659	25.4000 
966.346	0.8896	-1.8394	3.4136	13.5242	1.4502	0.5383	25.4500 
966.366	-0.3477	-0.1201	2.1211	8.7012	-0.1868	0.6592	25.4800 
966.386	0.0054	-0.0962	1.2529	7.0422	-0.5603	0.7635	25.4500 
966.406	0.1499	-0.1226	1.1040	6.1798	-0.6976	0.8679	25.4600 
966.426	0.1011	-0.0981	1.0815	5.5646	-0.6592	1.0162	25.4700 
966.446	0.1040	-0.1074	1.0854	5.0922	-0.5603	1.1646	25.4500 
966.467	0.1362	-0.0972	1.0259	4.6252	-0.5328	1.3074	25.4800 
966.527	0.1572	-0.1011	1.0220	4.1803	-0.6317	1.4557	25.4800 
966.530	0.1514	-0.1304	1.0298	3.7628	-0.7526	1.6479	25.4700 
966.530	0.1338	-0.1172	1.0288	3.4332	-0.8350	1.8567	25.4800 
966.545	0.1162	-0.1177	1.0264	3.1091	-0.9119	2.0544	25.4700 
966.565	0.1235	-0.1211	1.0132	2.7850	-1.0107	2.2412	25.4800 
966.585	0.1465	-0.1230	1.0015	2.4719	-1.1206	2.4500	25.4800 
966.605	0.1426	-0.1182	0.9985	2.1204	-1.1755	2.7026	25.4900 
966.625	0.1226	-0.1328	1.0190	1.6370	-1.1371	3.0048	25.4800 
966.645	0.1138	-0.1377	1.0044	1.0217	-0.9998	3.3453	25.4800 
966.665	0.1030	-0.1504	1.0156	0.2747	-0.7910	3.6420	25.4800 
966.717	0.1055	-0.1455	1.0107	-0.5658	-0.5658	3.9001	25.4700 
966.719	0.1152	-0.1572	0.9980	-1.4832	-0.3625	4.1473	25.4800 
966.724	0.1016	-0.1880	1.0093	-2.4829	-0.1703	4.4055	25.4800 
966.744	0.0962	-0.2280	1.0215	-3.5925	0.0714	4.6692	25.4700 
966.764	0.0894	-0.2329	1.0181	-4.5923	0.3900	4.8834	25.4900 
966.784	0.0693	-0.2637	1.0239	-5.2625	0.7800	4.9658	25.5000 
966.805	0.0615	-0.2612	1.0254	-5.7294	1.2030	4.8944	25.4700 
966.825	0.0723	-0.2451	1.0303	-6.0480	1.6974	4.6692	25.4800 
966.843	0.0830	-0.2446	1.0112	-6.4160	2.2137	4.4330	25.4800 
966.864	0.0977	-0.2192	1.0405	-7.0367	2.5653	4.3451	25.4800 
966.884	0.1313	-0.1646	1.0474	-8.0750	2.8015	4.4824	25.5000 
966.903	0.0562	0.2212	1.2031	-9.4922	2.9938	5.2405	25.5100 
966.966	-0.0103	0.3735	1.8662	-12.8430	3.0048	6.7786	25.5100 
966.969	0.4829	0.0811	2.0381	-22.3901	3.2794	9.0198	25.4900 
966.969	0.6128	0.1689	1.6465	-35.9088	4.2627	11.2115	25.4800 
966.983	0.4268	-1.1221	4.9731	-48.1531	8.0530	11.2994	25.4700 
967.003	1.0649	0.5947	3.4517	-51.7566	10.6458	11.0577	25.4700 
967.024	1.0874	0.5796	1.2612	-49.0320	10.8160	11.9751	25.4800 
967.043	0.7319	0.3330	0.5132	-44.9725	10.2393	11.5906	25.4800 
967.063	0.5688	0.2490	0.9180	-41.3745	9.5801	10.2063	25.4600 
967.084	0.2935	0.1514	1.1929	-37.0129	8.5474	8.7781	25.4700 
967.102	0.1157	-0.0024	1.2305	-31.6516	7.2675	7.5916	25.4600 
967.152	-0.1753	-0.2144	1.0688	-25.4828	5.9436	6.7291	25.4700 
967.154	-0.2842	-0.3242	1.0010	-19.0723	4.7186	6.2512	25.4500 
967.162	-0.2964	-0.4585	1.1948	-13.2330	3.4442	6.2402	25.4700 
967.182	-0.3105	-0.4990	1.4434	-7.6080	2.1533	6.4764	25.4500 
967.202	-0.3813	-0.5649	1.5796	-1.8512	0.9174	6.7786	25.4400 
967.222	-0.3110	-0.6191	1.5225	3.7738	-0.4504	7.1686	25.4500 
967.242	-0.0640	-0.7051	1.5415	8.9044	-1.8896	7.5586	25.4200 
967.262	0.1069	-0.7778	1.5601	13.2935	-3.2025	8.0365	25.4300 
967.283	0.2637	-0.9316	1.8594	17.0453	-4.4055	8.4979	25.4400 
967.301	0.3345	-1.0693	1.9688	20.7642	-5.6360	8.6737	25.4200 
967.340	0.3076	-1.3306	1.2666	24.9719	-7.2510	8.2617	25.4000 
967.342	-0.0029	-1.5591	0.9697	29.2017	-8.7781	6.8610	25.3900 
967.361	-0.7163	-2.0791	0.5127	32.8436	-8.0750	3.6365	25.3900 
967.381	-1.1318	-2.4243	0.0928	35.3430	-6.8170	0.7086	25.4200 
967.401	-0.6147	-2.8145	-0.5420	35.0189	-5.6140	-0.4010	25.4200 
967.420	-0.5088	-0.6812	0.2007	32.0361	-2.9608	0.3461	25.4100 
967.440	0.1084	0.1143	1.2397	27.6196	-1.3239	2.2028	25.4100 
967.461	-0.8281	-0.2764	1.6582	22.6099	-0.0659	2.8619	25.3900 
967.482	1.1582	-1.8052	3.2412	16.8915	-0.7800	3.8452	25.4000 
967.533	-0.5220	-0.0400	2.0566	12.5629	-2.0215	3.6804	25.4500 
967.535	0.0439	-0.0796	1.3403	10.0470	-2.7026	3.3618	25.4700 
967.540	0.1553	-0.0850	1.1392	8.8220	-2.7795	3.1586	25.4600 
967.560	0.1445	-0.0864	1.0630	8.0804	-2.7411	3.1256	25.4700 
967.580	0.1318	-0.0835	1.0918	7.4817	-2.8345	3.1256	25.4500 
967.600 
967.621	0.1416	-0.0659	1.0259	6.6193	-3.2300	3.0652	25.4700 
967.682	0.1909	-0.0889	0.9912	5.6799	-4.5154	3.1915	25.4600 
967.721	0.1978	-0.1050	1.0015	5.2625	-4.9878	3.3124	25.4600 
967.724	0.1895	-0.1104	1.0127	4.9219	-5.3339	3.4552	25.4600 
967.739	0.1875	-0.1133	1.0156	4.6088	-5.5316	3.5760	25.4500 
967.759	0.2114	-0.0913	0.9761	4.2078	-5.6085	3.7134	25.4600 
967.779	0.2085	-0.0815	0.9727	3.6859	-5.5646	3.9001	25.4500 
967.799	0.1753	-0.1255	1.0112	2.9169	-5.4822	4.1254	25.4600 
967.819	0.1709	-0.1318	1.0093	2.0325	-5.3888	4.3506	25.4500 
967.839	0.1792	-0.1411	0.9907	1.1591	-5.2899	4.6033	25.4700 
967.859	0.1851	-0.1499	0.9746	0.3351	-5.2130	4.8889	25.4700 
967.879	0.1973	-0.1660	0.9565	-0.3845	-4.9933	5.2075	25.4600 
967.898	0.1812	-0.1748	0.9907	-1.1151	-4.5374	5.5261	25.4600 
967.918	0.1709	-0.1943	0.9985	-1.7633	-3.8507	5.7843	25.4700 
967.957	0.1616	-0.1992	1.0278	-2.2742	-3.0432	5.9875	25.4600 
967.963	0.1089	-0.2451	1.0737	-2.8235	-2.1808	6.0919	25.4700 
967.978	0.0815	-0.2275	1.1045	-3.4222	-1.3403	6.1029	25.4600 
967.998	0.0615	-0.2441	1.0781	-4.2737	-0.7031	6.0315	25.4700 
968.018	0.0732	-0.1265	1.0654	-5.3119	-0.2197	5.9821	25.4700 
968.038	0.0972	0.1484	1.0435	-6.4874	0.0385	6.1633	25.4800 
968.058	0.1953	0.1963	1.2329	-8.4924	0.1703	6.9489	25.5100 
968.078	0.0098	0.1509	2.0264	-14.9524	0.4065	8.5419	25.5100 
968.097	0.4932	-0.0142	1.9868	-26.3123	0.2032	10.7996	25.4800 
968.145	0.5322	0.1201	1.7173	-40.3748	0.2142	13.9966	25.4600 
968.148	0.6079	-1.1416	4.5903	-52.6190	3.3069	14.8151	25.4500 
968.157	0.9697	0.5493	3.4219	-54.3494	5.9711	14.9854	25.4600 
968.177	0.9272	0.4556	1.0820	-51.2292	7.1027	15.4413	25.4700 
968.197	0.8428	0.2983	0.6855	-46.2854	7.3334	15.1392	25.4500 
968.217	0.6626	0.1484	0.9570	-41.3196	7.1521	14.0240	25.4400 
968.237	0.4707	0.0645	1.0527	-35.7495	6.5369	12.7167	25.4400 
968.257	0.2188	-0.1870	1.0454	-29.4653	5.2734	11.7554	25.4400 
968.277	0.0625	-0.3252	1.0034	-22.8955	3.5980	10.9534	25.4300 
968.300	-0.1968	-0.5000	1.1636	-16.5234	1.9995	10.1459	25.4200 
968.334	-0.3550	-0.5669	1.2832	-10.5469	0.6207	9.5087	25.4300 
968.337	-0.4189	-0.6348	1.3823	-4.7791	-0.5878	9.3109	25.4100 
968.356	-0.3237	-0.6392	1.4077	0.7031	-1.6425	9.6460	25.4400 
968.376	-0.1025	-0.6133	1.4707	5.7349	-2.7576	10.4700	25.4200 
968.396	0.0283	-0.6431	1.6235	10.3107	-4.2627	11.5137	25.4200 
968.416	0.2734	-0.7085	1.8691	14.6283	-6.1963	12.3816	25.4100 
968.436	0.3877	-0.7671	1.7832	18.9569	-8.0914	12.8046	25.4000 
968.456	0.4653	-0.9316	1.6704	23.1866	-9.6570	12.6837	25.4200 
968.475	0.3882	-1.0522	1.5117	27.3505	-10.9094	11.9531	25.4100 
968.496	-0.1494	-1.2998	0.7969	31.4648	-11.8652	10.3601	25.4000 
968.516	-0.5352	-1.6177	0.5171	35.1343	-11.4807	7.5037	25.4000 
968.535	-1.0654	-2.0776	0.3398	37.3865	-10.0470	4.4879	25.3900 
968.570	-0.8135	-1.8330	0.1724	38.1885	-8.9813	2.6752	25.4000 
968.575	-0.5542	-1.6138	0.2827	36.7657	-8.4540	3.1421	25.4200 
968.595	-0.0210	-0.5547	0.6338	33.4369	-6.4435	5.1910	25.4000 
968.615	0.6753	0.2632	0.4248	29.4928	-4.4989	7.4817	25.3800 
968.635	-0.6299	-0.4688	1.5464	24.0051	-2.7411	8.7012	25.3800 
968.654	1.0474	-0.6177	3.4453	17.7374	-2.9388	8.7231	25.4000 
968.675	-0.2407	-0.5552	2.4849	10.6952	-4.5703	9.0033	25.4300 
968.695	0.2104	-0.2280	1.3120	8.3386	-4.8395	8.9484	25.4500 
968.715	0.1797	-0.1123	1.1084	7.4103	-4.7461	9.0692	25.4300 
968.760	0.1177	-0.1104	1.0601	6.8939	-4.7351	9.1516	25.4500 
968.762	0.0879	-0.0918	1.0522	6.4874	-4.7791	9.2285	25.4300 
968.775	0.1333	-0.0996	1.0137	6.1249	-4.7516	9.2615	25.4600 
968.794	0.1353	-0.1060	1.0288	5.6635	-4.6857	9.2999	25.4400 
968.814	0.1509	-0.1040	1.0181	5.3503	-4.6967	9.3549	25.4500 
968.834	0.1572	-0.1113	1.0107	5.0922	-4.8669	9.4592	25.4400 
968.854	0.1372	-0.1133	1.0005	4.8010	-5.1141	9.5691	25.4400 
968.874	0.1685	-0.1372	1.0103	4.5483	-5.4272	9.7119	25.4400 
968.894	0.1519	-0.1113	0.9971	4.2957	-5.6580	9.8987	25.4300 
968.960	0.1519	-0.1191	1.0098	3.9990	-5.7898	10.1184	25.4300 
968.963	0.0518	-0.0205	0.8389	3.6255	-5.7678	10.3381	25.4400 
968.963	0.1025	-0.1050	1.0293	3.0927	-5.6415	10.5853	25.4300 
968.973	0.1362	-0.1177	0.9961	2.4554	-5.5261	10.8875	25.4300 
968.993	0.1382	-0.1699	1.0259	1.6534	-5.3503	11.2775	25.4400 
969.013	0.1255	-0.1631	1.0112	0.7690	-5.0317	11.6949	25.4500 
969.033	0.1147	-0.1602	1.0093	-0.1208	-4.6307	12.0795	25.4600 
969.053	0.1006	-0.1641	0.9922	-1.0822	-4.1858	12.3981	25.4500 
969.073	0.0776	-0.2124	1.0249	-2.1423	-3.6639	12.6508	25.4500 
969.093	0.0742	-0.2549	1.0161	-3.1696	-3.0817	12.7716	25.4400 
969.153	0.0728	-0.2417	1.0273	-3.7848	-2.4774	12.7551	25.4500 
969.155	0.0708	-0.2515	1.0283	-4.0100	-1.9501	12.5793	25.4600 
969.155	0.0649	-0.2612	1.0381	-4.2078	-1.4667	12.3431	25.4500 
969.172	0.0874	-0.2183	1.0537	-4.6143	-1.0382	12.1509	25.4600 
969.192	0.0747	-0.1890	1.0596	-5.2954	-0.6976	12.0135	25.4500 
969.212	0.1440	0.0073	1.0342	-6.4545	-0.3955	12.1179	25.4600 
969.232	0.1270	0.0186	1.1108	-8.0859	-0.2252	12.7386	25.4600 
969.252	0.0654	0.3525	1.9688	-12.7881	-0.0494	14.2163	25.4700 
969.272	0.2476	-0.0576	1.9570	-22.9559	0.5713	16.1334	25.4700 
969.292	0.6670	0.5273	1.5356	-37.0239	1.5930	18.0396	25.4500 
969.312	0.7808	-2.2080	4.5190	-51.3446	4.8779	18.2098	25.4400 
969.332	1.2554	0.6240	4.5952	-55.5304	7.3444	16.8695	25.4400 
969.353	0.8691	0.5742	1.2139	-52.4817	7.4213	16.5179	25.4300 
969.391	0.5659	0.3506	0.5771	-47.3511	6.8335	15.6006	25.4500 
969.393	0.4155	0.1704	0.7476	-42.2699	6.1798	14.4086	25.4500 
969.411	0.3716	0.1035	0.9541	-36.9800	5.4053	13.2550	25.4400 
969.432	0.1772	-0.0703	1.1616	-31.0693	4.4824	12.1454	25.4200 
969.451	-0.0488	-0.1885	1.1514	-24.5325	3.4717	11.1896	25.4300 
969.471	-0.2427	-0.4263	1.2192	-17.8912	2.3016	10.6842	25.4200 
969.491	-0.2134	-0.5796	1.3398	-11.5961	0.8954	10.6677	25.4300 
969.510	-0.0376	-0.7368	1.5444	-5.6085	-0.5548	10.7446	25.4100 
969.531	0.0015	-0.7900	1.5464	0.2362	-1.7249	10.5029	25.4100 
969.582	-0.2583	-0.7510	1.4448	5.8722	-2.5928	9.8492	25.4000 
969.584	-0.3911	-0.7363	1.5073	11.1346	-3.6255	9.0472	25.4200 
969.590	-0.1924	-0.8838	1.8628	15.8258	-5.0098	8.5529	25.4000 
969.610	-0.0117	-1.0747	2.0142	20.1489	-6.3940	8.6957	25.4000 
969.630	0.1836	-1.2969	1.5747	24.7357	-7.8552	9.4647	25.4100 
969.650	0.2485	-1.5151	1.1309	29.1852	-9.2120	9.7284	25.4100 
969.670	-0.0161	-1.9946	0.5576	32.7777	-10.3162	9.0417	25.3900 
969.690	-0.5327	-2.4424	0.2861	35.3430	-11.3104	7.7344	25.3900 
969.710	-0.8286	-2.6206	-0.5669	36.0956	-10.1019	5.6415	25.4000 
969.729	-0.4878	-1.5942	-0.1987	33.1732	-8.0145	5.4053	25.3900 
969.771	0.3706	0.3794	1.3384	28.7238	-5.8447	6.9543	25.3700 
969.773	-0.1489	-0.3208	1.4653	23.4064	-4.3781	8.6847	25.3700 
969.789	0.3521	0.4048	3.0386	17.9022	-4.2078	8.8110	25.3800 
969.809	0.3315	-0.4395	1.8501	11.4642	-5.9546	9.6295	25.4100 
969.829	0.2842	-0.1572	1.1904	8.9099	-6.7017	9.7449	25.4200 
969.848	0.0767	-0.0781	1.1714	7.8278	-6.7676	10.0800	25.4200 
969.869	0.1206	-0.1250	1.1284	7.1960	-6.7896	10.4480	25.4300 
969.889	0.0942	-0.0923	1.0503	6.6742	-6.7731	10.7941	25.4400 
969.908	0.0938	-0.0977	1.0454	6.2183	-6.8774	11.0687	25.4300 
969.959	0.1377	-0.0923	1.0537	5.7623	-7.0258	11.2885	25.4400 
969.963	0.1592	-0.1021	1.0220	5.3668	-7.2455	11.5576	25.4300 
969.968	0.1807	-0.1128	1.0142	4.9768	-7.4542	11.8817	25.4400 
969.988	0.1675	-0.1021	0.9941	4.6088	-7.5421	12.2498	25.4300 
970.008	0.1582	-0.0981	0.9956	4.2133	-7.5916	12.6508	25.4200 
970.028	0.1313	-0.0918	0.9927	3.7518	-7.6794	13.0902	25.4200 
970.048	0.1426	-0.1021	0.9771	3.2025	-7.7838	13.5791	25.4300 
970.068	0.1348	-0.1284	1.0044	2.4939	-7.7728	14.0900	25.4300 
970.088	0.1396	-0.1733	1.0337	1.6589	-7.6630	14.6118	25.4400 
970.108	0.1289	-0.1753	1.0195	0.7800	-7.4323	15.0897	25.4400 
970.128	0.1318	-0.1748	1.0073	-0.1263	-7.1082	15.5237	25.4300 
970.149	0.1470	-0.1802	1.0068	-0.9668	-6.7511	15.9412	25.4400 
970.207	0.1377	-0.1836	0.9990	-1.7743	-6.3666	16.3861	25.4300 
970.210	0.1133	-0.2305	1.0171	-2.5983	-5.9106	16.8365	25.4200 
970.210	0.0918	-0.2256	1.0269	-3.1860	-5.3613	17.2321	25.4300 
970.227	0.0713	-0.2310	1.0273	-3.5046	-4.8120	17.5122	25.4400 
970.247	0.0664	-0.2417	1.0269	-3.7738	-4.3286	17.6605	25.4300 
970.270	0.0664	-0.2480	1.0298	-3.9935	-3.8727	17.6825	25.4200 
970.286	0.0776	-0.2061	1.0459	-4.2188	-3.4387	17.6550	25.4400 
970.306	0.0967	-0.1968	1.0562	-4.7571	-3.0817	17.6990	25.4300 
970.327	0.1133	-0.2295	0.9829	-5.7349	-2.7960	17.9407	25.4500 
970.346	0.1074	0.0098	1.0757	-7.1356	-2.6257	18.6823	25.4500 
970.412	0.0249	0.4883	1.5986	-10.0800	-2.4335	20.1654	25.4600 
970.414	0.1260	0.2617	1.9272	-18.8086	-2.1973	22.4835	25.4600 
970.415	0.5923	0.2334	1.8608	-31.6022	-1.9501	25.0928	25.4400 
970.426	0.3979	-1.7974	3.4790	-45.9943	-0.0494	27.0648	25.4200 
970.446	1.0073	0.3149	4.4590	-54.7668	3.3398	27.0758	25.4400 
970.466	1.1016	0.4995	2.2700	-54.1406	4.7351	27.7075	25.4200 
970.486	0.7246	0.3218	0.4712	-50.2350	5.0977	27.6636	25.4200 
970.506	0.6450	0.2378	0.4849	-45.9009	4.9054	26.9769	25.4200 
970.527	0.6147	0.1021	1.1025	-41.6986	4.3561	25.9607	25.4100 
970.545	0.4277	0.0229	1.3101	-36.4417	3.3453	24.7028	25.4300 
970.603	0.0889	-0.1992	1.0732	-30.1190	1.9995	23.4174	25.4100 
970.605	-0.0723	-0.3662	0.9678	-23.5162	0.5878	22.2638	25.3900 
970.605	-0.1191	-0.5483	1.0137	-17.1771	-0.7361	21.3574	25.4000 
970.625	0.0718	-0.6543	1.1445	-11.3214	-2.1094	20.7751	25.4000 
970.645	0.2827	-0.7734	1.4878	-5.8173	-3.4003	19.9402	25.4000 
970.665	0.2080	-0.8096	1.5459	-0.3735	-4.5428	18.4351	25.3900 
970.685	-0.0947	-0.8359	1.4590	4.9988	-5.5975	16.2103	25.3700 
970.704	-0.3052	-0.8281	1.5996	10.2448	-6.2897	13.2770	25.3800 
970.725	-0.4917	-0.8149	1.6582	15.3094	-6.3940	10.4535	25.3800 
970.744	-0.4365	-0.7930	1.5957	20.0610	-5.7843	8.4210	25.3800 
970.791	-0.4111	-0.9175	1.6738	24.3951	-4.7626	7.5311	25.3700 
970.794	-0.4141	-1.0898	1.4648	28.5974	-4.2352	7.4982	25.3700 
970.807	-0.0898	-1.3872	0.7939	32.3657	-5.4108	8.4540	25.3600 
970.824	0.0723	-1.6572	0.6904	35.2277	-8.3496	10.5469	25.3800 
970.844	-0.0830	-1.7148	-0.4043	37.0734	-10.4919	11.9531	25.3700 
970.864	-0.4756	-2.5215	-0.6152	36.4032	-11.4587	13.6121	25.3600 
970.884	-0.3521	0.2412	0.6338	32.7777	-9.0472	15.8093	25.3300 
970.904	0.6855	0.0283	1.3281	27.9382	-7.2894	18.0945	25.3300 
970.924	-0.7715	-0.2051	2.0122	23.0438	-6.1414	18.4625	25.3400 
970.979	0.3813	-0.0630	2.1050	17.9517	-6.1688	18.4735	25.3500 
970.981	-0.5586	-0.1113	1.9258	12.5024	-7.3224	19.1437	25.3900 
970.983	0.2515	-0.1846	1.4478	9.1406	-8.5034	18.8306	25.4100 
971.003	0.0908	-0.1133	1.1709	7.8058	-8.6792	18.5284	25.4000 
971.023	0.0610	-0.0918	1.1060	6.9928	-8.7286	18.3472	25.4000 
971.048	0.1133	-0.1133	1.0728	6.4105	-8.8660	18.1879	25.3900 
971.063	0.1055	-0.0894	1.0420	6.0260	-9.0363	18.0286	25.3900 
971.083	0.1689	-0.0850	1.0244	5.7404	-9.2230	17.8967	25.4100 
971.103	0.1934	-0.0981	1.0151	5.4327	-9.4482	17.8857	25.3900 
971.123	0.1694	-0.0981	0.9976	4.9988	-9.6954	17.9572	25.4100 
971.145	0.1621	-0.1191	1.0098	4.4769	-9.9646	18.0396	25.4000 
971.163	0.1475	-0.1138	1.0088	4.0155	-10.1019	18.1384	25.4000 
971.184	0.1367	-0.1201	1.0244	3.5925	-10.1349	18.2153	25.4100 
971.220	0.1460	-0.1270	1.0093	3.1586	-10.1184	18.2867	25.4100 
971.223	0.1499	-0.1084	0.9722	2.6367	-10.0195	18.3801	25.4100 
971.245	0.1587	-0.1128	0.9888	2.0544	-9.8547	18.5175	25.4000 
971.262	0.1421	-0.1274	1.0020	1.4282	-9.6075	18.6603	25.3900 
971.282	0.1299	-0.1563	1.0166	0.7745	-9.3494	18.7921	25.4000 
971.302	0.1299	-0.1563	1.0039	0.1318	-9.0802	18.9185	25.4200 
971.322	0.1265	-0.1670	0.9985	-0.5878	-8.6957	19.0173	25.4100 
971.342	0.1270	-0.1802	1.0054	-1.3348	-8.2013	19.0613	25.4000 
971.361	0.1157	-0.1860	1.0039	-1.9885	-7.5696	19.0283	25.4100 
971.409	0.1055	-0.2432	1.0308	-2.5598	-6.8555	18.9185	25.4100 
971.411	0.0771	-0.2241	1.0435	-2.9114	-6.1194	18.6987	25.4200 
971.421	0.0664	-0.2124	1.0508	-3.1531	-5.4602	18.4076	25.3900 
971.441	0.0708	-0.2100	1.0635	-3.6200	-4.9603	18.0890	25.4100 
971.461	0.0605	-0.2026	1.0737	-4.4000	-4.5703	17.8088	25.4000 
971.481	0.1055	-0.0640	1.0415	-5.4987	-4.2792	17.6495	25.4000 
971.500	0.1440	0.1733	1.0527	-6.9873	-4.1034	17.7100	25.4200 
971.521	0.0850	0.6504	1.6377	-10.1569	-3.9880	18.3856	25.4200 
971.541	-0.0210	0.1323	2.0361	-17.7649	-3.6804	19.5007	25.4200 
971.561	0.6631	0.4312	1.9858	-30.7562	-3.9056	20.9399	25.4200 
971.594	0.7485	0.3652	2.7856	-45.5164	-3.4827	22.6318	25.4100 
971.601	1.2104	0.7881	4.3833	-54.0198	-0.6262	21.2750	25.4000 
971.621	0.9302	0.7397	1.9028	-53.3112	0.5603	20.2368	25.3900 
971.640	0.6387	0.5322	0.7197	-49.0375	0.8514	18.9899	25.3900 
971.660	0.4590	0.3350	0.7485	-44.1156	1.0217	17.4573	25.3900 
971.682	0.4067	0.2114	0.9751	-39.1608	1.0876	16.0400	25.3900 
971.701	0.3037	-0.0107	1.1855	-33.7170	0.8789	14.9139	25.3900 
971.720	0.1709	-0.1641	1.1934	-27.4878	0.3735	14.0405	25.3800 
971.739	-0.0737	-0.3921	1.1855	-20.6818	-0.2856	13.3759	25.3700 
971.785	-0.1763	-0.5190	1.2065	-13.9197	-1.2250	13.0408	25.3900 
971.790	-0.2847	-0.6816	1.3745	-7.7344	-2.3346	12.9803	25.3800 
971.799	-0.2466	-0.7598	1.5864	-1.9006	-3.4387	13.1781	25.3600 
971.819	-0.0117	-0.8315	1.5952	3.7463	-4.4769	13.5791	25.3500 
971.838	0.1064	-0.8564	1.5542	9.1351	-5.4822	13.8812	25.3500 
971.859	0.1938	-0.9585	1.6040	14.1449	-6.4600	13.9691	25.3600 
971.879	0.1978	-1.0337	1.7427	18.8141	-7.4432	13.9471	25.3500 
971.900	0.2251	-1.1743	1.6567	23.2690	-8.7231	13.9911	25.3500 
971.919	0.2051	-1.2759	1.3193	27.7295	-10.4590	13.8922	25.3500 
971.938	-0.0083	-1.4517	1.0303	31.6736	-12.3157	13.2495	25.3500 
971.958	-0.4878	-1.6138	0.8945	35.2386	-13.1451	11.2390	25.3400 
971.978	-0.8096	-2.2354	0.1738	38.1830	-12.6727	8.4430	25.3400 
972.025	-0.7295	-2.0781	-0.5684	39.4409	-11.6675	7.1411	25.3400 
972.027	0.0347	-1.1729	0.0581	36.2054	-11.4368	8.8824	25.3100 
972.038	0.4692	0.8062	0.8511	31.9427	-9.6954	11.1401	25.3300 
972.058	-0.7695	-0.4380	1.4502	26.3617	-7.7563	11.9861	25.3100 
972.078	-1.1792	-0.0928	1.8125	20.9015	-6.7731	11.6949	25.3100 
972.098	1.1763	-1.8911	3.2803	14.0350	-8.0365	12.3431	25.3400 
972.118	-0.3491	-0.1104	2.1680	9.6075	-9.0857	12.1838	25.3600 
972.137	-0.0127	-0.0723	1.2671	8.1958	-8.9758	12.3047	25.3800 
972.157	0.1348	-0.1665	1.1733	7.3993	-8.7781	12.4036	25.3800 
972.177	0.1099	-0.0894	1.0391	6.8390	-8.5748	12.5079	25.3800 
972.213	0.1021	-0.0928	1.0723	6.3171	-8.4650	12.5958	25.3800 
972.217	0.0874	-0.0864	1.0562	5.7513	-8.3881	12.6068	25.3800 
972.237	0.1572	-0.1040	1.0347	5.2625	-8.3936	12.6343	25.3800 
972.258	0.1509	-0.1274	1.0288	4.7955	-8.4210	12.7496	25.3800 
972.277	0.1260	-0.1177	1.0229	4.4055	-8.4320	12.8595	25.3700 
972.297	0.1372	-0.1128	1.0083	3.9990	-8.4540	12.9803	25.3700 
972.317	0.1465	-0.1147	0.9937	3.5815	-8.4760	13.1396	25.3600 
972.336	0.1309	-0.1138	0.9971	3.1696	-8.4485	13.3319	25.3700 
972.359	0.1284	-0.1230	0.9976	2.7026	-8.3167	13.5901	25.3600 
972.401	0.1201	-0.1401	1.0059	2.1368	-8.0750	13.8593	25.3600 
972.403	0.1147	-0.1411	1.0112	1.4667	-7.7948	14.1119	25.3600 
972.416	0.1094	-0.1450	1.0049	0.6482	-7.5037	14.3427	25.3500 
972.436	0.1040	-0.1621	1.0112	-0.2911	-7.2070	14.5898	25.3700 
972.456	0.0996	-0.1616	0.9961	-1.2250	-6.9049	14.8315	25.3700 
972.476	0.0791	-0.2026	1.0195	-2.2302	-6.5314	15.0677	25.3800 
972.496	0.0820	-0.2246	1.0161	-3.1641	-6.0425	15.2216	25.3700 
972.516	0.0747	-0.2339	1.0283	-3.7573	-5.4822	15.2655	25.3900 
972.536	0.0625	-0.2588	1.0249	-4.0979	-4.9878	15.1337	25.3900 
972.555	0.0586	-0.2573	1.0337	-4.2957	-4.5044	14.8975	25.3800 
972.576	0.0820	-0.2085	1.0757	-4.3835	-4.0265	14.5953	25.3800 
972.595	0.0693	-0.2310	1.0283	-4.8999	-3.6475	14.3591	25.3800 
972.644	0.1138	-0.0698	1.0430	-6.1853	-3.3838	14.3866	25.3700 
972.646	0.1406	0.1006	1.1152	-7.9321	-3.1750	14.9689	25.3900 
972.655	-0.0059	0.3057	1.9639	-12.5409	-3.0872	16.7267	25.4100 
972.675	0.3452	-0.0234	1.9053	-22.3846	-2.6532	19.4403	25.3900 
972.695	0.7026	0.2871	1.4414	-36.3647	-1.2744	22.2693	25.3800 
972.715	0.4756	-1.5176	3.6289	-50.0208	3.0322	22.8461	25.3600 
972.734	1.7881	0.8188	4.2124	-55.1129	6.5808	22.3627	25.3600 
972.755	1.6069	0.6792	1.9404	-52.5256	6.6357	24.0875	25.3700 
972.774	1.0708	0.3521	0.8687	-46.5161	4.6033	24.4775	25.3700 
972.794	0.3247	0.0664	0.6958	-40.3418	2.2522	22.8845	25.3700 
972.829	0.0151	-0.0239	1.0454	-34.4916	0.3735	20.6708	25.3700 
972.834	-0.1870	-0.1943	1.2422	-28.1030	-1.3843	18.9569	25.3500 
972.854	-0.3188	-0.3315	1.1758	-21.0278	-2.9608	17.7539	25.3600 
972.874	-0.3940	-0.5181	1.1675	-14.1010	-4.3286	17.0068	25.3600 
972.894	-0.3130	-0.5908	1.2861	-7.8278	-5.6195	16.6882	25.3700 
972.914	-0.1899	-0.6304	1.4478	-2.0654	-6.7401	16.4630	25.3500 
972.934	-0.1860	-0.6157	1.5376	3.4827	-7.6959	16.1279	25.3300 
972.953	-0.1694	-0.6685	1.6836	8.7781	-8.8495	15.7104	25.3200 
972.974	-0.0088	-0.7593	1.9014	13.7329	-10.2118	15.3479	25.3300 
973.019	0.3774	-0.9761	2.0210	18.5175	-11.4368	15.3314	25.3200 
973.021	0.3486	-1.1387	1.8716	23.4338	-12.3541	15.5072	25.3200 
973.033	0.1201	-1.4922	1.4194	28.5864	-13.4692	14.8315	25.3100 
973.053	-0.1274	-1.9146	0.8760	33.3600	-14.2822	13.1726	25.3200 
973.072	-1.0117	-2.5474	0.3569	36.9470	-14.1833	11.0138	25.3100 
973.093	-0.8813	-2.3906	-0.5601	39.1113	-12.8705	8.6737	25.3100 
973.112	-0.7363	-2.4771	-0.4424	36.7438	-12.1344	9.2615	25.3100 
973.133	-0.2036	0.2324	1.1260	32.4866	-9.4043	11.0468	25.3000 
973.154	0.4473	-0.2002	1.2905	27.1967	-7.8003	13.6450	25.2800 
973.217	-1.1323	-0.2817	2.1226	22.2583	-6.7676	14.0350	25.2800 
973.219	1.6973	-1.2676	3.0859	17.5012	-7.4377	14.3262	25.3100 
973.219	-0.2935	-0.2095	1.7915	12.7881	-8.3112	14.5844	25.3400 
973.233	0.0962	-0.1050	1.3384	9.8712	-9.1626	14.1943	25.3400 
973.252	0.0498	-0.0874	1.2012	8.5583	-9.3384	13.8043	25.3500 
973.272	0.1265	-0.0869	1.0562	7.8992	-9.3878	13.5461	25.3600 
973.312	0.1157	-0.0801	1.0259	6.8884	-9.6021	13.1451	25.3600 
973.332	0.1323	-0.0684	1.0454	6.5314	-9.7559	12.9144	25.3500 
973.351	0.1890	-0.0923	1.0132	6.1249	-10.0195	12.7771	25.3400 
973.372	0.1670	-0.0991	1.0151	5.7019	-10.3491	12.7112	25.3500 
973.391	0.1650	-0.0845	1.0020	5.2240	-10.6677	12.6727	25.3600 
973.411	0.1675	-0.1084	1.0063	4.6527	-10.9589	12.6508	25.3400 
973.458	0.1528	-0.1265	1.0098	3.9880	-11.2115	12.6343	25.3300 
973.460	0.1743	-0.1299	1.0122	3.3179	-11.3983	12.6178	25.3400 
973.471	0.1099	-0.0830	0.8398	2.6312	-11.4972	12.6233	25.3400 
973.491	0.1743	-0.1528	1.0098	1.8732	-11.5137	12.6892	25.3500 
973.510	0.1851	-0.1528	0.9912	1.1096	-11.4972	12.7826	25.3400 
973.530	0.1885	-0.1494	0.9771	0.3296	-11.4258	12.8870	25.3500 
973.550	0.1860	-0.1670	0.9824	-0.3900	-11.2830	13.0243	25.3500 
973.572	0.1743	-0.1719	0.9844	-1.0822	-11.0303	13.1451	25.3600 
973.591	0.1626	-0.1899	0.9912	-1.7688	-10.6403	13.2111	25.3500 
973.644	0.1597	-0.1963	0.9868	-2.3456	-10.1349	13.1946	25.3400 
973.645	0.1650	-0.2471	1.0156	-2.8564	-9.5416	13.0902	25.3500 
973.649	0.1401	-0.2339	1.0337	-3.2300	-8.8495	12.9089	25.3500 
973.670	0.1333	-0.2368	1.0562	-3.5376	-8.1189	12.6782	25.3600 
973.690	0.1177	-0.2095	1.0791	-3.9661	-7.5146	12.4585	25.3600 
973.710	0.0996	-0.2065	1.0874	-4.8834	-7.1136	12.3102	25.3600 
973.730	0.1479	-0.0479	1.0552	-6.2622	-6.8500	12.3541	25.3500 
973.749	0.0669	0.0605	1.2085	-8.6462	-6.6852	12.8101	25.3600 
973.769	-0.0659	0.6372	1.9727	-13.1287	-6.5369	13.7769	25.3600 
973.789	0.3335	0.1934	2.0474	-23.5107	-7.1631	15.6995	25.3700 
973.829	0.8682	0.3999	1.6992	-37.2437	-8.4100	18.4900	25.3700 
973.831	1.0449	-1.4785	4.8940	-50.3448	-6.1743	18.9954	25.3400 
973.849	1.0835	0.8467	3.6919	-54.8822	-3.0542	17.0013	25.3400 
973.869	0.6348	0.6235	1.0884	-52.3224	-1.6534	15.5951	25.3500 
973.889	0.5166	0.4375	0.7100	-47.7576	-0.6042	14.2822	25.3400 
973.909	0.5840	0.3232	0.8428	-42.9071	0.2966	13.1067	25.3400 
973.929	0.6030	0.1035	1.1504	-37.6556	0.9723	11.8817	25.3300 
973.948	0.5254	-0.0645	1.1724	-31.5088	1.3788	10.6458	25.3200 
973.968	0.3813	-0.3022	0.9971	-24.7742	1.2689	9.6130	25.3300 
974.022	0.2188	-0.4302	1.0200	-17.9077	0.7581	8.7396	25.3200 
974.027	-0.1035	-0.5649	1.2617	-11.3928	-0.0934	8.1244	25.3200 
974.029	-0.1831	-0.6392	1.4434	-5.1691	-1.3788	7.9651	25.3100 
974.048	0.0894	-0.7500	1.4644	0.7196	-2.9169	8.1628	25.3000 
974.068	0.3242	-0.7754	1.5957	6.1029	-4.3726	8.2288	25.3000 
974.088	0.3145	-0.7705	1.7461	11.1182	-5.6305	7.5916	25.2900 
974.107	0.0815	-0.8584	1.9033	15.8588	-6.9159	6.1523	25.2900 
974.128	-0.1226	-1.1108	2.1118	20.5389	-8.3936	4.2462	25.2800 
974.147	-0.2163	-1.3774	1.9551	25.4224	-9.5306	1.7303	25.2800 
974.167	-0.5278	-1.8379	1.1011	30.5530	-9.6350	-0.8844	25.2800 
974.188	-0.8462	-2.2573	0.5396	34.8322	-9.3329	-2.6532	25.2700 
974.207	-0.7480	-2.8472	-0.3550	37.2821	-9.6625	-3.3453	25.2900 
974.257	-0.1621	-2.5850	-0.3867	37.6447	-11.2939	-2.7356	25.2900 
974.259	0.4282	-1.0024	0.9585	34.2389	-11.3434	0.0549	25.2800 
974.267	0.6860	0.6309	0.5977	30.3333	-9.1956	2.5598	25.2700 
974.287	-1.0303	-0.2783	1.7954	25.3619	-6.5588	3.7793	25.2500 
974.306	-1.5786	0.0205	1.8408	20.6982	-4.9219	3.9716	25.2700 
974.326	0.6069	-0.7749	2.2217	15.4028	-5.6909	4.7241	25.2900 
974.346	-0.4019	-0.0693	1.9678	11.7719	-6.8005	4.4495	25.3100 
974.368	0.0005	-0.0439	1.2246	9.5911	-7.0148	4.3066	25.3100 
974.386	0.1299	-0.0942	1.1245	8.4210	-7.1686	4.2078	25.3300 
974.406	0.1519	-0.0869	1.0293	7.5531	-7.3499	4.2297	25.3300 
974.454	0.1382	-0.0718	1.0332	6.8335	-7.5751	4.2792	25.3400 
974.457	0.1411	-0.1167	1.0703	6.0205	-7.8882	4.3286	25.3400 
974.486	0.1685	-0.1323	1.0342	4.6637	-8.6902	4.4934	25.3400 
974.505	0.1655	-0.1387	1.0210	4.0320	-8.9484	4.6088	25.3200 
974.526	0.1777	-0.1362	1.0020	3.4827	-9.1846	4.7131	25.3100 
974.545	0.1753	-0.1411	0.9980	3.0103	-9.3988	4.8340	25.3100 
974.565	0.1816	-0.1411	0.9937	2.5763	-9.5197	4.9658	25.3300 
974.585	0.1880	-0.1563	0.9932	2.0325	-9.5691	5.1306	25.3100 
974.604	0.1987	-0.1484	0.9556	1.3074	-9.5471	5.3448	25.3300 
974.644	0.2085	-0.1572	0.9575	0.4889	-9.3878	5.6360	25.3300 
974.645	0.1987	-0.1812	0.9741	-0.3955	-9.0637	5.9766	25.3300 
974.665	0.1748	-0.1880	0.9897	-1.3403	-8.6078	6.3556	25.3200 
974.686	0.1421	-0.2139	1.0000	-2.2357	-8.1079	6.7346	25.3300 
974.705	0.1396	-0.2061	0.9883	-2.9773	-7.6025	7.0642	25.3400 
974.725	0.1323	-0.2739	1.0166	-3.5760	-6.9818	7.2784	25.3200 
974.746	0.1040	-0.2827	1.0483	-3.9825	-6.3226	7.3608	25.3300 
974.764	0.0884	-0.2383	1.0576	-4.1144	-5.7294	7.2784	25.3300 
974.784	0.0933	-0.2236	1.0747	-4.3616	-5.1746	7.1246	25.3400 
974.840	0.0693	-0.1821	1.1030	-4.9768	-4.6143	6.9598	25.3400 
974.844	0.1479	-0.0015	1.0508	-6.0315	-4.2023	7.0203	25.3400 
974.848	0.1577	0.2544	1.2817	-8.2013	-4.0649	7.7509	25.3500 
974.864	-0.0581	0.4844	2.0791	-13.1946	-3.8892	9.2834	25.3500 
974.883	0.5659	0.2349	1.9229	-24.4720	-4.4220	11.8213	25.3400 
974.903	0.6924	0.4448	1.7969	-38.8147	-4.6802	15.0732	25.3400 
974.924	1.2036	0.4224	4.5894	-48.9771	-1.0492	14.9139	25.3200 
974.943	1.0562	0.7856	2.3071	-49.7681	1.2030	14.5624	25.3200 
974.963	0.6797	0.5576	0.5581	-46.1920	2.1588	14.1724	25.3100 
974.983	0.6758	0.4243	0.7051	-41.8579	2.8235	13.5956	25.3200 
975.003	0.7085	0.2598	0.9663	-37.6941	3.0762	13.0408	25.3200 
975.023	0.5879	0.0361	1.2822	-32.6459	2.7686	12.3047	25.2900 
975.043	0.3662	-0.1143	1.2568	-26.5594	1.8951	11.2994	25.3100 
975.079	-0.0259	-0.3359	1.0718	-19.8688	0.8075	10.1514	25.3100 
975.083	-0.2134	-0.4595	1.0513	-13.4418	-0.3680	9.2065	25.2900 
975.103	-0.2949	-0.5562	1.2769	-7.6630	-1.6809	8.7396	25.2900 
975.122	-0.2461	-0.5952	1.4390	-2.1753	-3.0048	8.7012	25.3000 
975.142	-0.0981	-0.6094	1.4614	3.2080	-4.2627	8.8605	25.2800 
975.162	-0.0225	-0.6216	1.5054	8.2727	-5.5536	9.0143	25.2800 
975.183	0.0332	-0.6621	1.7393	13.0518	-6.9928	9.0143	25.2800 
975.202	0.1670	-0.7876	1.9116	17.6001	-8.6298	8.9648	25.2800 
975.223	0.3066	-1.0630	1.9058	22.1210	-10.2832	8.8440	25.2700 
975.275	0.3828	-1.2910	1.6895	26.6968	-11.9586	8.4155	25.2700 
975.278	0.0176	-1.7764	1.1426	31.1957	-13.5022	7.2070	25.2700 
975.282	-0.4316	-2.2456	0.6191	35.1288	-14.7711	5.3448	25.2800 
975.302	-1.0781	-2.8740	-0.4126	37.5787	-13.4308	2.6202	25.2600 
975.322	-1.0347	-2.8721	-0.6714	37.0020	-11.3763	1.7194	25.2800 
975.341	-0.6436	0.3804	0.8149	32.9974	-7.6685	3.2849	25.2600 
975.361	-0.1206	-0.0132	1.3149	27.5427	-4.9933	5.3174	25.2400 
975.381	-0.4380	-0.1768	2.3784	21.7804	-3.6145	5.9106	25.2500 
975.403	1.0298	-1.7852	3.2207	15.2765	-4.2078	6.7401	25.2800 
975.422	-0.1455	-0.0591	1.5474	11.0687	-5.2460	6.5479	25.3000 
975.470	-0.0117	-0.1157	1.2886	8.9813	-5.6744	6.5808	25.3000 
975.475	0.1172	-0.1226	1.1348	7.0532	-5.6525	7.4487	25.3100 
975.600	0.1372	-0.1196	1.0122	4.9164	-7.0642	8.5419	25.3200 
975.620	0.1387	-0.1191	0.9937	4.5703	-7.4268	8.8550	25.2900 
975.658	0.1509	-0.1162	0.9937	4.2297	-7.6410	9.1901	25.3100 
975.660	0.1572	-0.1265	0.9961	3.7738	-7.7179	9.5636	25.3000 
975.680	0.1519	-0.1260	0.9897	3.2025	-7.6904	9.9866	25.3000 
975.700	0.1411	-0.1265	0.9956	2.5763	-7.5696	10.4260	25.3000 
975.719	0.1270	-0.1353	0.9966	1.7963	-7.2949	10.8710	25.2900 
975.739	0.1309	-0.1641	1.0039	0.6921	-6.8610	11.3269	25.3000 
975.759	0.1362	-0.1836	1.0112	-0.5109	-6.3391	11.7993	25.3000 
975.778	0.1294	-0.2222	1.0166	-1.6479	-5.7733	12.2662	25.3100 
975.799	0.0952	-0.2314	1.0391	-2.4500	-5.1361	12.6672	25.3100 
975.845	0.0786	-0.2314	1.0361	-2.9443	-4.5154	12.9639	25.3300 
975.850	0.0576	-0.2397	1.0278	-3.3179	-3.9880	13.1396	25.3000 
975.859	0.0557	-0.2524	1.0610	-3.6859	-3.4387	13.1726	25.3200 
975.879	0.0518	-0.2036	1.0488	-4.0375	-2.8235	13.1287	25.3200 
975.899	0.1353	-0.1416	1.0186	-4.7461	-2.2577	13.1232	25.3200 
975.918	0.1255	0.1816	1.1074	-5.9491	-1.8732	13.5077	25.3400 
975.938	0.1045	0.5757	2.0078	-9.3823	-1.7633	15.0897	25.3500 
975.958	0.1523	0.3848	2.1509	-18.2373	-1.4886	17.6440	25.3300 
975.978	0.5454	0.5244	1.7437	-32.7942	-0.9833	20.7916	25.3200 
975.998	0.4072	-2.0928	4.1304	-47.8345	2.0435	22.5055	25.3100 
976.019	1.1914	0.6855	3.1885	-52.0203	5.1306	22.6154	25.3000 
976.044	1.1348	0.5933	1.1948	-50.0262	5.9656	23.3624	25.2900 
976.083	0.7988	0.3491	0.6729	-45.6921	5.6854	22.7032	25.2900 
976.085	0.6226	0.3047	0.9521	-40.8142	5.2734	20.9454	25.3200 
976.098	0.3013	0.1641	1.0093	-35.4584	4.6637	19.0338	25.3100 
976.117	0.2188	-0.0142	1.0186	-29.4049	3.7628	17.5452	25.3000 
976.137	0.1089	-0.1929	0.9995	-22.8900	2.6312	16.5015	25.2800 
976.158	-0.1274	-0.3877	1.1270	-16.0785	1.5161	15.7269	25.2900 
976.177	-0.2290	-0.4751	1.2686	-9.4922	0.2911	15.3204	25.2800 
976.197	-0.2446	-0.5703	1.4863	-3.5211	-1.0822	15.2765	25.2600 
976.219	-0.2588	-0.5664	1.6431	2.1973	-2.4994	15.3809	25.2800 
976.282	-0.2051	-0.6191	1.8730	7.7673	-4.0210	15.5237	25.2600 
976.285	-0.1631	-0.6577	1.8706	13.2550	-5.4767	15.6061	25.2500 
976.285	-0.1084	-0.7134	1.9077	18.5504	-6.7126	15.6555	25.2500 
976.297	0.0967	-0.7925	1.9438	23.4943	-7.9706	15.8203	25.2500 
976.317	0.4507	-1.0923	1.7637	28.1744	-9.3549	15.8698	25.2600 
976.336	0.4595	-1.4331	1.5327	32.6129	-10.7666	15.2985	25.2600 
976.356	-0.1260	-1.8774	0.7227	36.8152	-12.1619	13.7823	25.2400 
976.376	-0.6592	-2.4336	0.2646	40.3033	-13.6066	11.2994	25.2300 
976.396	-1.2134	-2.2998	-0.1807	42.4841	-12.4915	8.4760	25.2500 
976.418	-0.6646	-1.7739	0.5664	42.0996	-11.3324	7.5146	25.2500 
976.472	-0.0327	-0.7080	1.0420	38.6499	-10.1239	9.4757	25.2500 
976.474	0.3276	0.8750	0.1699	34.8322	-8.5693	12.0850	25.2300 
976.476	-0.3882	-0.3677	1.8755	29.5917	-7.2235	13.8208	25.2100 
976.496	-0.9521	-0.0752	1.4419	24.6368	-6.4764	13.6340	25.2100 
976.516	1.3735	-2.3320	4.1284	18.1439	-7.6849	14.1779	25.2500 
976.535	-0.6382	0.0010	2.2446	12.7441	-9.0198	14.2053	25.2900 
976.555	-0.0366	-0.0615	1.3721	10.8655	-8.9923	14.2877	25.2800 
976.615	-0.0366	-0.0615	1.3721	8.6298	-8.1519	14.7272	25.2800 
976.666	0.1045	-0.0933	1.0503	7.9541	-7.9926	14.9084	25.2800 
976.672	0.1187	-0.0850	1.0254	7.4707	-7.9047	15.0458	25.3000 
976.674	0.1519	-0.0942	1.0112	7.1631	-7.9102	15.1831	25.2800 
976.695	0.1509	-0.0898	0.9980	6.8994	-8.0255	15.3589	25.2900 
976.714	0.1260	-0.0757	0.9941	6.5863	-8.1958	15.5347	25.3100 
976.734	0.1372	-0.0986	1.0190	6.2457	-8.4265	15.7214	25.2900 
976.754	0.1450	-0.0874	1.0063	5.8392	-8.5858	15.9576	25.2900 
976.774	0.1367	-0.0923	1.0166	5.3778	-8.6407	16.2378	25.2800 
976.794	0.1118	-0.0869	1.0176	4.7791	-8.5419	16.5454	25.2900 
976.814	0.1323	-0.0952	1.0010	4.0320	-8.3276	16.9135	25.2800 
976.835	0.1265	-0.1353	0.9917	3.1091	-8.0365	17.3914	25.2900 
976.853	0.1006	-0.1216	1.0059	1.9611	-7.6190	17.9077	25.2800 
976.914	0.0864	-0.1436	1.0103	0.6317	-7.1191	18.4186	25.3000 
976.916	0.0596	-0.2021	1.0396	-0.7086	-6.6028	18.8745	25.2900 
976.916	0.0684	-0.2427	1.0347	-2.0435	-6.0205	19.2371	25.3000 
976.933	0.0649	-0.2368	1.0317	-2.8564	-5.3998	19.3689	25.3000 
976.953	0.0610	-0.2656	1.0371	-3.2025	-4.8230	19.2755	25.2900 
976.973	0.0674	-0.2476	1.0410	-3.4003	-4.2737	19.0723	25.2900 
976.993	0.0767	-0.2090	1.0703	-3.6475	-3.7573	18.8416	25.3100 
977.014	0.1060	-0.2163	1.0664	-4.3781	-3.4113	18.7427	25.3200 
977.033	0.1606	0.0874	1.0767	-6.0754	-3.2300	19.0778	25.3100 
977.054	0.0220	0.4390	1.3208	-8.4540	-3.1586	20.1654	25.3200 
977.117	0.2729	0.6157	2.3071	-15.5951	-3.0817	22.6263	25.3300 
977.120	0.6675	0.3330	2.2446	-28.5864	-2.3730	25.5542	25.3300 
977.120	0.5815	-1.8691	4.1401	-44.0771	0.7526	27.0044	25.3000 
977.133	1.0093	0.8286	4.5840	-52.2070	5.1196	25.6146	25.2900 
977.152	1.2002	0.7236	1.2012	-50.8942	6.1908	26.1255	25.2900 
977.172	1.0049	0.5059	0.7041	-47.1368	6.0040	26.2958	25.2900 
977.192	0.6802	0.3667	0.9238	-42.7533	5.1031	25.3510	25.2900 
977.212	0.3740	0.2505	1.1543	-38.1335	3.8342	23.9502	25.2800 
977.233	0.0610	-0.0034	1.2827	-32.4261	2.2137	22.6208	25.2800 
977.252	-0.1377	-0.1514	1.1353	-25.8289	0.6207	21.3959	25.2700 
977.306	-0.3403	-0.2622	1.0688	-18.8141	-0.6097	20.3522	25.2600 
977.308	-0.4033	-0.4624	1.2896	-12.1783	-1.7303	19.9072	25.2700 
977.311	-0.2764	-0.5522	1.4702	-5.9766	-2.9059	20.0336	25.2600 
977.331	0.0459	-0.6084	1.7329	0.1099	-4.0485	20.2039	25.2500 
977.351	0.1953	-0.7056	1.8354	6.1194	-5.1031	19.8303	25.2700 
977.371	0.0898	-1.0264	1.9985	11.9916	-5.9766	18.6163	25.2500 
977.391	-0.1567	-1.2183	2.0835	17.7649	-6.6138	17.0233	25.2600 
977.411	-0.5151	-1.5020	1.8501	23.6920	-7.6245	15.7434	25.2400 
977.431	-0.5835	-1.7344	1.4873	29.6906	-8.1738	13.4253	25.2400 
977.451	-0.4238	-2.2734	0.8042	34.2993	-10.0085	13.3868	25.2500 
977.490	-0.2749	-2.6563	0.2695	37.2217	-12.0795	14.3262	25.2400 
977.493	-0.0435	-3.1240	-0.6797	37.4689	-13.4308	15.5292	25.2200 
977.510	-0.1953	-2.3628	-1.0044	34.1235	-13.1506	17.2375	25.2300 
977.530	-0.7886	0.3711	1.9482	29.4543	-10.7721	17.7209	25.2200 
977.550	-0.9790	-0.3066	1.3364	24.3292	-9.1187	18.1055	25.2000 
977.570	1.6211	-2.4087	4.2539	18.2758	-9.6405	18.8196	25.2300 
977.590	-0.5293	0.0444	1.9434	12.9254	-11.0577	19.0503	25.2500 
977.679	-0.5293	0.0444	1.9434	7.1082	-11.8982	18.8635	25.2500 
977.789	0.1548	-0.1401	1.0215	3.1860	-13.6780	19.6875	25.2900 
977.809	0.1821	-0.1606	1.0068	2.5104	-13.8153	19.9017	25.2800 
977.829	0.1860	-0.1494	0.9907	1.8622	-13.9087	20.1105	25.2800 
977.851	0.2085	-0.1602	0.9678	1.0547	-13.9032	20.3687	25.2900 
977.869	0.2056	-0.1655	0.9678	0.1483	-13.7274	20.6763	25.2700 
977.928	0.1816	-0.1865	0.9868	-0.8185	-13.4363	21.0168	25.2800 
977.931	0.1826	-0.1895	0.9751	-1.8292	-13.0902	21.3629	25.2800 
977.931	0.1719	-0.2070	0.9795	-2.6807	-12.6782	21.7145	25.2800 
977.948	0.1626	-0.2051	0.9844	-3.2739	-12.2278	22.0551	25.2900 
977.968	0.1558	-0.2754	1.0229	-3.7299	-11.6620	22.3242	25.2800 
977.988	0.1318	-0.2295	1.0146	-3.9496	-10.9589	22.4835	25.2700 
978.008	0.0825	-0.2588	1.0601	-4.1034	-10.1898	22.5220	25.3000 
978.028	0.1045	-0.2251	1.0698	-4.3616	-9.4482	22.4506	25.2700 
978.049	0.0894	-0.2432	1.0703	-4.9768	-8.7616	22.3462	25.3100 
978.068	0.0840	-0.1890	1.0693	-6.0040	-8.2178	22.3572	25.2900 
978.117	0.1167	-0.0322	1.0171	-7.5861	-7.9211	22.5769	25.2900 
978.120	0.1050	0.1226	1.2310	-9.8218	-7.7179	23.1976	25.3000 
978.127	0.0122	0.3833	2.0566	-15.9412	-7.4213	24.4995	25.3000 
978.147	0.3330	-0.0200	1.9731	-26.9495	-7.7618	26.4111	25.2900 
978.167	0.6553	0.2266	1.8584	-41.4294	-8.2782	29.1302	25.2900 
978.187	0.9878	-1.1455	5.3677	-53.7067	-5.7513	29.5258	25.2900 
978.206	0.9893	0.6738	2.0078	-53.8989	-3.7244	28.8007	25.2800 
978.227	0.6738	0.4854	0.7007	-49.9384	-2.5049	27.7460	25.3000 
978.248	0.6230	0.3438	0.7163	-44.7473	-1.2030	26.1420	25.2700 
978.266	0.7285	0.2061	0.9985	-39.8804	-0.0165	24.7357	25.2700 
978.300	0.6626	-0.0186	1.1489	-34.4147	0.6207	23.4943	25.2800 
978.306	0.5151	-0.1768	1.0688	-28.1525	0.6537	22.4396	25.2500 
978.326	0.2856	-0.3677	1.0356	-21.4838	-0.0604	21.5991	25.2700 
978.346	0.0659	-0.4702	1.1221	-15.0787	-1.1261	20.8411	25.2500 
978.366	-0.1787	-0.5698	1.3647	-9.2175	-2.3840	20.3082	25.2600 
978.386	-0.1455	-0.6299	1.5234	-3.5431	-3.8232	20.0500	25.2500 
978.407	-0.0537	-0.6445	1.5596	2.0599	-5.3229	19.9567	25.2600 
978.426	-0.0679	-0.6294	1.5859	7.4213	-6.7346	19.6930	25.2600 
978.446	-0.1338	-0.6348	1.8110	12.5189	-8.1409	19.1602	25.2500 
978.496	-0.0103	-0.7803	2.0215	17.3749	-9.6735	18.6658	25.2300 
978.501	0.1826	-0.9321	1.9702	22.0935	-11.0742	18.5339	25.2300 
978.505	0.1230	-1.2227	1.5264	26.7572	-12.3816	18.5339	25.2300 
978.525	-0.0464	-1.5522	1.1162	31.2616	-14.0790	17.8033	25.2100 
978.545	-0.8335	-2.1943	0.4648	34.8651	-15.6335	16.5564	25.2200 
978.565	-1.1060	-2.5488	-0.0522	37.6227	-15.2325	14.3372	25.2300 
978.585	-0.4189	-1.9116	-0.3325	37.4854	-16.6553	14.3756	25.2300 
978.604	-0.6089	-1.9448	0.0186	33.7720	-16.3751	16.9629	25.2000 
978.625	0.5664	0.5381	0.6753	29.3445	-13.5571	19.1986	25.2000 
978.645	-0.1660	-0.1997	1.6172	23.9502	-11.4587	21.1377	25.1900 
978.685	0.1284	0.2739	2.7905	18.6328	-10.4974	21.4288	25.2200 
978.688	0.5898	-0.8208	2.3823	12.3541	-11.4972	22.2913	25.2400 
978.704	0.1904	-0.1279	1.4292	8.8770	-12.2168	21.8683	25.2600 
978.724	0.0107	-0.0811	1.2573	7.1906	-12.4200	21.8024	25.2800 
978.785	0.1055	-0.0669	1.0137	5.6964	-12.4585	21.9836	25.2600 
978.844	0.1743	-0.0957	1.0005	4.3945	-13.0078	22.1429	25.2500 
978.864	0.1475	-0.1084	1.0137	4.0045	-13.2550	22.3352	25.2700 
978.884	0.1436	-0.1138	1.0151	3.6859	-13.4692	22.5439	25.2700 
978.921	0.1641	-0.0869	0.9902	3.4277	-13.5297	22.7472	25.2600 
978.923	0.1616	-0.0903	1.0010	3.1091	-13.4308	22.9779	25.2500 
978.943	0.1475	-0.1133	1.0181	2.5983	-13.1561	23.2526	25.2800 
978.963	0.1372	-0.1040	1.0063	1.9885	-12.8156	23.5712	25.2700 
978.983	0.1201	-0.1211	1.0112	1.2469	-12.3871	23.9282	25.2700 
979.003	0.1055	-0.1304	0.9961	0.3406	-11.8268	24.3402	25.2700 
979.023	0.1016	-0.1255	1.0034	-0.6702	-11.1841	24.7522	25.2800 
979.049	0.0986	-0.1343	1.0107	-1.7303	-10.5359	25.1202	25.2700 
979.064	0.0654	-0.2271	1.0557	-2.9993	-9.8328	25.4498	25.2700 
979.111	0.0669	-0.2368	1.0483	-4.1089	-9.0527	25.6586	25.2600 
979.113	0.0640	-0.2344	1.0371	-4.6637	-8.3496	25.6586	25.2800 
979.122	0.0552	-0.2456	1.0444	-5.0317	-7.7783	25.5377	25.2700 
979.142	0.0674	-0.2236	1.0464	-5.3448	-7.2400	25.3729	25.2800 
979.162	0.0649	-0.2144	1.0435	-5.9491	-6.8170	25.2850	25.2800 
979.182	0.1465	-0.0215	1.0381	-7.4597	-6.4874	25.4773	25.2800 
979.202	0.0801	0.1846	1.2036	-9.8932	-6.2677	26.4496	25.3100 
979.222	0.2144	0.4175	2.1182	-15.8862	-6.0754	28.8611	25.3100 
979.243	0.5791	0.2510	2.1582	-27.5427	-5.1141	31.9482	25.2900 
979.264	0.4468	0.0635	2.7666	-42.8796	-2.4170	34.2719	25.2900 
979.297	1.0820	0.0479	4.8330	-54.3933	2.0105	33.8379	25.2700 
979.302	1.5771	0.6807	1.9463	-55.0085	3.0103	34.1455	25.2700 
979.321	1.0942	0.4082	0.8066	-51.8390	1.9501	33.8489	25.2600 
979.341	0.4819	0.2432	0.6255	-47.1149	0.0055	32.0691	25.2600 
979.361	0.2720	0.1494	0.8672	-42.3743	-1.8457	29.8718	25.2700 
979.381	0.0059	0.0396	1.2192	-36.9525	-3.4442	27.8613	25.2500 
979.401	-0.1509	-0.1069	1.3481	-30.7068	-4.7955	26.1859	25.2800 
979.421	-0.3198	-0.3042	1.2896	-23.7360	-5.8063	25.0214	25.2500 
979.441	-0.4209	-0.3965	1.2910	-16.7377	-6.5533	24.3237	25.2600 
979.461	-0.3726	-0.4956	1.3672	-10.1569	-7.2729	24.3073	25.2500 
979.481	-0.3052	-0.5386	1.4448	-3.9221	-7.9211	24.6094	25.2600 
979.500	-0.1885	-0.5645	1.6821	1.9446	-8.4430	25.0983	25.2400 
979.535	-0.0479	-0.6606	1.8101	7.5146	-9.2340	25.6421	25.2500 
979.540	0.1030	-0.7861	1.9126	12.8375	-10.3986	26.0651	25.2400 
979.560	0.2622	-1.0205	1.9106	17.9846	-11.5796	26.1859	25.2400 
979.580	0.3135	-1.2456	1.7847	22.9614	-12.7002	25.9772	25.2300 
979.600	0.1187	-1.6665	1.4736	27.7240	-13.7933	25.1202	25.2200 
979.620	-0.1968	-2.0659	0.9028	32.1844	-14.7986	23.4064	25.2200 
979.639	-1.1304	-2.8330	0.0703	35.4968	-15.7269	21.6595	25.2300 
979.660	-0.9702	-2.2178	-0.9282	36.4856	-17.4847	20.8850	25.2400 
979.681	-0.4639	-1.4985	-0.2456	32.6898	-18.2318	22.5769	25.2000 
979.726	0.2476	0.4199	1.4287	27.5867	-16.1115	24.7357	25.2200 
979.727	0.2134	-0.4131	1.6040	21.8298	-14.8975	27.2461	25.1900 
979.739	-0.8003	-0.1704	1.9902	16.7871	-14.3097	26.9440	25.1900 
979.759	0.9063	-1.1733	2.3433	10.5524	-15.4852	27.7570	25.2400 
979.779	-0.4756	-0.1011	2.1563	6.8060	-16.6443	27.2900	25.2600 
979.799	-0.0537	-0.0967	1.3066	5.1251	-16.5454	27.3889	25.2600 
979.958	0.1563	-0.0996	1.0005	1.5930	-16.5289	28.0975	25.2500 
979.978	0.1401	-0.1040	1.0068	1.1755	-16.5894	28.2623	25.2700 
979.998	0.1563	-0.1187	0.9951	0.6702	-16.5509	28.4766	25.2500 
980.018	0.1626	-0.1147	0.9868	0.0824	-16.4081	28.7347	25.2600 
980.040	0.1543	-0.1182	0.9824	-0.6207	-16.1005	29.0369	25.2500 
980.058	0.1372	-0.1655	1.0122	-1.4941	-15.7324	29.3829	25.2600 
980.079	0.1123	-0.1650	1.0132	-2.4939	-15.2710	29.7070	25.2700 
980.098	0.1221	-0.1733	1.0049	-3.5211	-14.8041	29.9872	25.2700 
980.147	0.1338	-0.1763	0.9917	-4.4714	-14.3811	30.2399	25.2600 
980.149	0.1235	-0.1865	0.9976	-5.3503	-13.9252	30.4486	25.2800 
980.157	0.1118	-0.2549	1.0254	-6.1084	-13.3978	30.5914	25.2500 
980.177	0.1060	-0.2354	1.0259	-6.4655	-12.7936	30.5859	25.2600 
980.197	0.0796	-0.2300	1.0444	-6.6632	-12.1509	30.4486	25.2700 
980.217	0.0732	-0.2471	1.0518	-6.9598	-11.5576	30.2014	25.2600 
980.237	0.0757	-0.2021	1.0635	-7.3993	-11.0083	29.9542	25.2800 
980.257	0.0859	-0.1602	1.0728	-8.2562	-10.6018	29.7839	25.2800 
980.277	0.1328	0.2275	1.1167	-9.5691	-10.3986	29.9213	25.2800 
980.296	0.0342	0.4141	1.4043	-12.1893	-10.1624	30.7068	25.3000 
980.336	0.1631	0.3579	2.1255	-20.2533	-9.8932	32.1844	25.2900 
980.338	0.5869	0.3501	2.0649	-34.0741	-10.3326	34.3872	25.2700 
980.356	0.7710	-1.6743	3.8135	-50.0043	-9.4427	36.4197	25.2800 
980.376	1.2437	0.6675	4.9146	-59.3921	-6.2732	35.0793	25.2700 
980.396	0.8550	0.7778	1.4907	-57.9694	-4.9713	33.9752	25.2700 
980.416	0.5596	0.5381	0.6724	-53.4265	-4.2517	32.6953	25.2700 
980.436	0.5728	0.3755	0.8506	-48.0762	-3.7024	31.4319	25.2500 
980.456	0.6035	0.2393	1.1157	-42.8796	-3.4167	30.3662	25.2600 
980.476	0.4194	-0.0151	1.2769	-36.8536	-3.6584	29.3884	25.2400 
980.524	0.2407	-0.1709	1.1899	-30.0092	-4.3890	28.4766	25.2400 
980.530	-0.1299	-0.3633	1.2197	-22.6538	-5.4218	27.5922	25.2400 
980.535	-0.4067	-0.4512	1.2847	-15.4688	-6.5259	26.8396	25.2400 
980.556	-0.5098	-0.5562	1.5059	-8.7836	-7.7509	26.6473	25.2400 
980.575	-0.2583	-0.6187	1.6313	-2.4445	-9.0033	26.9769	25.2200 
980.595	0.0078	-0.7046	1.8486	3.5101	-10.0800	27.3889	25.2200 
980.615	0.0454	-0.8618	2.0171	9.2889	-11.0138	27.3999	25.2300 
980.635	-0.0181	-1.2114	2.0889	14.8975	-11.9476	27.2296	25.2000 
980.655	0.0493	-1.4922	1.9482	20.2917	-13.2001	27.3779	25.2200 
980.675	0.0884	-1.8008	1.5913	25.3400	-14.7491	27.5647	25.2000 
980.694	-0.1191	-2.3311	0.8853	29.8389	-16.6608	27.0428	25.2100 
980.715	-0.5977	-3.0083	0.4126	33.2007	-18.2483	25.9937	25.2000 
980.773	-0.8120	-2.4790	-1.3130	34.5135	-20.0116	25.5652	25.2000 
980.775	-0.4692	-2.6064	-0.7153	30.8441	-20.8960	27.0703	25.1900 
980.775	0.4453	0.4395	1.0947	25.7574	-19.2261	29.0863	25.1800 
980.795	-0.3862	-0.3032	1.5781	20.1379	-17.2870	30.2673	25.1600 
980.814	0.8916	0.0547	2.9995	14.3701	-16.9958	30.2728	25.1900 
980.834	0.2153	-0.7329	2.3008	7.6300	-18.3911	31.4264	25.2300 
980.854	0.2593	-0.1738	1.2373	4.7076	-19.2755	30.9320	25.2600 
981.039	0.1509	-0.1313	1.0107	-1.2195	-19.0063	32.2943	25.2500 
981.053	0.1509	-0.1426	1.0137	-1.7413	-18.9459	32.6074	25.2400 
981.073	0.1489	-0.1470	1.0142	-2.2577	-18.7866	32.9095	25.2500 
981.094	0.1567	-0.1450	0.9902	-2.8619	-18.5449	33.2007	25.2500 
981.158	0.1636	-0.1416	0.9707	-3.5980	-18.2098	33.4918	25.2500 
981.162	0.1440	-0.1763	0.9917	-4.5099	-17.7484	33.8379	25.2400 
981.162	0.1484	-0.1685	0.9922	-5.4877	-17.2046	34.1565	25.2500 
981.172	0.1445	-0.1802	0.9927	-6.5753	-16.6003	34.4916	25.2600 
981.192	0.1191	-0.1948	1.0044	-7.6245	-16.0236	34.8322	25.2400 
981.213	0.1104	-0.2739	1.0337	-8.4869	-15.4633	35.1123	25.2600 
981.232	0.0942	-0.2622	1.0376	-8.9429	-14.8480	35.2441	25.2500 
981.252	0.0781	-0.2529	1.0337	-9.1901	-14.2767	35.1837	25.2600 
981.272	0.0742	-0.2651	1.0586	-9.4482	-13.7000	34.9475	25.2600 
981.291	0.0815	-0.2036	1.0815	-9.8602	-13.0243	34.6674	25.2500 
981.344	0.1284	-0.1504	1.0210	-10.7172	-12.3706	34.5245	25.2500 
981.347	0.1338	-0.0024	1.1357	-12.2113	-11.9092	34.8706	25.2600 
981.351	0.0317	0.3618	1.8657	-16.5125	-11.3818	35.9637	25.2800 
981.371	0.2944	-0.0303	1.9858	-27.0264	-10.8875	37.9358	25.2700 
981.391	0.5552	0.4199	1.8726	-41.4624	-10.4590	40.4517	25.2600 
981.411	0.6978	-2.7031	4.1733	-56.7499	-7.9376	41.6437	25.2600 
981.433	1.4316	0.4033	4.5874	-63.4570	-4.7296	40.5835	25.2400 
981.451	1.1304	0.4209	1.4746	-61.4410	-3.7299	40.1221	25.2500 
981.471	0.7402	0.2124	0.7813	-56.1511	-4.0100	39.1608	25.2400 
981.491	0.4912	0.1436	0.7158	-49.8285	-4.5593	37.5732	25.2400 
981.534	0.4224	0.0537	0.9600	-43.8135	-5.1636	35.9198	25.2400 
981.538	0.2637	-0.1196	1.2852	-37.5073	-5.9436	34.3488	25.2200 
981.550	0.0986	-0.2832	1.1279	-30.5750	-6.8170	32.8546	25.2200 
981.570	-0.2246	-0.4131	1.0903	-23.0109	-7.6025	31.5472	25.2300 
981.590	-0.3267	-0.4360	1.1216	-15.6335	-8.3496	30.6024	25.2400 
981.610	-0.3164	-0.5605	1.3350	-9.3494	-9.1461	30.3223	25.2200 
981.630	-0.2222	-0.5776	1.5571	-3.5980	-10.0085	30.4926	25.2300 
981.650	-0.0605	-0.6108	1.7417	1.9995	-11.1017	30.8606	25.2100 
981.669	-0.0259	-0.7144	1.8013	7.5037	-12.3706	31.0199	25.2100 
981.690	0.0747	-1.0503	1.9819	12.7167	-13.7000	31.0364	25.2000 
981.711	0.1929	-1.3057	1.8984	17.6935	-14.9744	31.2012	25.1900 
981.729	-0.1680	-1.7749	1.4922	22.4011	-16.1664	31.2891	25.1800 
981.776	-0.1802	-2.1592	1.0537	26.8945	-17.5781	30.7288	25.1900 
981.779	-0.4292	-2.6113	0.4243	30.5255	-18.6768	29.6466	25.1600 
981.789	-0.7778	-3.0239	-0.7070	32.3932	-19.8468	28.8611	25.1800 
981.809	-0.6289	-3.6890	-1.1025	30.2728	-20.8411	29.3555	25.1800 
981.829	-0.0972	0.5264	1.5977	25.7300	-18.9899	30.3992	25.1600 
981.849	0.0044	-0.4834	1.7754	19.8798	-17.3309	32.3218	25.1500 
981.869	0.5645	0.2563	3.1602	14.4031	-16.7651	32.7063	25.1700 
981.888	0.2964	-0.5718	1.9165	8.4540	-17.7374	33.7720	25.2200 
981.908	0.2202	-0.1704	1.3784	4.9438	-18.6273	33.3875	25.2500 
981.974	0.0596	-0.0972	1.2598	3.5541	-18.6328	33.1348	25.2600 
981.977	0.0854	-0.0444	1.0488	3.0322	-18.4845	32.9590	25.2500 
981.977	0.1196	-0.0708	1.0293	2.5598	-18.3582	32.8381	25.2500 
981.987	0.1089	-0.0884	1.0435	2.1423	-18.2977	32.7283	25.2400 
982.008	0.1074	-0.0879	1.0439	1.8457	-18.2977	32.5909	25.2300 
982.028	0.1431	-0.0688	1.0000	1.5985	-18.3417	32.4316	25.2500 
982.048	0.1694	-0.0796	0.9873	1.3403	-18.4021	32.3328	25.2600 
982.127	0.1475	-0.0986	1.0127	0.3076	-18.3142	32.2888	25.2300 
982.162	0.1528	-0.0879	1.0010	-0.1154	-18.0780	32.3383	25.2400 
982.167	0.1431	-0.0947	0.9951	-0.7800	-17.7869	32.4756	25.2400 
982.187	0.1177	-0.1362	1.0166	-1.6864	-17.3529	32.7173	25.2300 
982.207	0.1104	-0.1274	1.0098	-2.6917	-16.7926	32.8931	25.2200 
982.228	0.1050	-0.1406	1.0073	-3.9386	-16.1444	33.0194	25.2300 
982.246	0.0952	-0.1870	1.0210	-5.4492	-15.4742	33.1238	25.2300 
982.266	0.0952	-0.2305	1.0288	-7.2070	-14.8425	33.2062	25.2500 
982.286	0.0923	-0.2378	1.0249	-8.6298	-14.2163	33.1732	25.2500 
982.308	0.0757	-0.2876	1.0293	-9.4153	-13.6121	32.9315	25.2500 
982.349	0.0659	-0.2788	1.0361	-9.8492	-13.0682	32.5745	25.2500 
982.353	0.0635	-0.2764	1.0557	-10.1184	-12.5079	32.1021	25.2400 
982.366	0.1226	-0.2021	1.1035	-10.5304	-11.9202	31.6571	25.2600 
982.386	0.1948	0.0552	1.1060	-11.7224	-11.3489	31.6132	25.2600 
982.405	0.0581	0.6523	1.7446	-14.7711	-11.0083	32.5305	25.2700 
982.426	0.5132	0.2407	2.1514	-24.0875	-10.5194	34.6454	25.2500 
982.446	0.7354	0.4531	2.0146	-38.8367	-8.4705	36.6284	25.2500 
982.466	0.5464	-0.4072	5.2095	-50.9271	-3.2025	35.0189	25.2300 
982.485	1.2129	0.9136	3.4365	-53.0640	-0.6921	34.0521	25.2400 
982.505	1.1240	0.6304	0.5884	-50.0098	-1.1536	34.7662	25.2300 
982.526	0.7803	0.4419	0.4868	-45.9998	-2.5598	34.1785	25.2500 
982.545	0.2681	0.3477	1.0659	-42.0117	-3.9880	32.4976	25.2400 
982.597	0.0547	0.2388	1.2954	-37.2656	-5.4602	30.8167	25.2200 
982.599	-0.0942	-0.0195	1.2251	-31.5143	-6.9159	29.5093	25.2300 
982.605	-0.2007	-0.2031	1.1187	-25.1587	-8.1079	28.4546	25.2400 
982.625	-0.3535	-0.3833	1.1924	-18.4186	-9.0033	27.6746	25.2400 
982.644	-0.3853	-0.4624	1.2891	-11.8872	-9.8438	27.2736	25.2100 
982.665	-0.2876	-0.5767	1.5005	-6.0370	-10.6952	27.3505	25.1900 
982.684	-0.1162	-0.6201	1.6021	-0.5273	-11.6510	27.7020	25.2100 
982.704	0.1450	-0.6855	1.9326	4.8669	-12.8925	27.9712	25.2100 
982.727	0.1348	-0.8018	2.0688	10.3931	-14.1669	27.7185	25.2200 
982.744	0.0532	-1.1416	2.0596	16.1005	-15.3314	26.9220	25.1900 
982.784	0.0737	-1.4424	1.8438	21.5991	-16.7102	26.2244	25.1900 
982.786	-0.0566	-2.0273	1.2007	26.7023	-18.4296	25.4498	25.1800 
982.804	-0.5347	-2.5229	0.6919	31.1902	-19.9182	24.2084	25.1900 
982.824	-1.0874	-3.1558	-0.8291	34.0796	-21.7639	23.0988	25.2000 
982.844	-0.8232	-3.3550	-1.0347	33.6017	-23.5107	23.2306	25.2000 
982.864	-0.3101	0.1860	0.9673	28.9215	-21.7859	25.4993	25.1700 
982.883	0.5420	-0.1128	1.6099	22.9999	-19.5227	27.8064	25.1600 
982.903	-0.2051	0.0640	2.4688	17.0782	-18.1769	28.6963	25.1800 
982.924	0.7358	-1.2324	2.6948	10.4700	-18.5010	29.5807	25.2000 
982.976	-0.4644	-0.2119	2.2700	6.0315	-19.6545	29.0643	25.2300 
982.979	0.0225	-0.1133	1.3032	4.1803	-19.7864	28.7292	25.2200 
982.983	0.1079	-0.0859	1.1172	3.4937	-19.6271	28.5370	25.2400 
983.003	0.1309	-0.0840	1.0337	2.9169	-19.4348	28.3942	25.2300 
983.023	0.1113	-0.0835	1.0635	2.5049	-19.3195	28.2678	25.2400 
983.043	0.1274	-0.0854	1.0166	2.1204	-19.2590	28.1305	25.2400 
983.063	0.1216	-0.0786	1.0117	1.7853	-19.3250	27.9547	25.2400 
983.123	0.1572	-0.1133	1.0244	1.0272	-19.4293	27.7075	25.2400 
983.163	0.1484	-0.1118	1.0210	0.7855	-19.3085	27.6581	25.2400 
983.166	0.1465	-0.1182	1.0234	0.4944	-19.2041	27.6251	25.2300 
983.182	0.1558	-0.1084	1.0186	0.2087	-19.1272	27.5922	25.2400 
983.202	0.2290	-0.1636	0.8882	-0.2197	-18.8745	27.6031	25.2400 
983.222	0.1753	-0.1011	0.9497	-0.7745	-18.7097	27.6581	25.2400 
983.242	0.1304	-0.1191	1.0059	-1.4612	-18.4186	27.7020	25.2400 
983.262	0.1270	-0.1382	1.0200	-2.1918	-18.0560	27.7405	25.2300 
983.281	0.1313	-0.1479	1.0078	-3.0267	-17.5726	27.7899	25.2400 
983.301	0.1226	-0.1553	0.9995	-3.9661	-17.0892	27.8394	25.2500 
983.323	0.1289	-0.1641	0.9932	-4.9219	-16.6333	27.8723	25.2300 
983.341	0.1152	-0.2056	1.0088	-5.9161	-16.1060	27.8448	25.2400 
983.361	0.1128	-0.2373	1.0166	-6.6193	-15.4907	27.6855	25.2400 
983.412	0.1143	-0.2300	1.0435	-7.0038	-14.8755	27.4329	25.2600 
983.415	0.0991	-0.2437	1.0498	-7.4597	-14.3646	27.1582	25.2400 
983.421	0.0684	-0.2695	1.0469	-8.0859	-13.9087	26.9055	25.2500 
983.441	0.0830	-0.1934	1.0483	-8.6957	-13.4363	26.6748	25.2600 
983.460	0.0972	-0.1709	1.0737	-9.4702	-13.0023	26.4716	25.2600 
983.480	0.1421	-0.0342	1.1079	-10.6897	-12.6837	26.5649	25.2500 
983.500	0.1045	0.5728	1.5308	-13.6176	-12.3376	27.2571	25.2700 
983.520	0.2510	0.3315	1.8794	-21.6980	-12.0245	28.4711	25.2600 
983.540	0.6499	0.1304	1.8076	-34.2609	-12.1783	30.2124	25.2600 
983.560	0.4648	-0.9727	3.4707	-48.2080	-10.5359	31.1298	25.2400 
983.600	0.8481	0.4863	4.4658	-55.0085	-7.4872	29.5807	25.2300 
983.602	0.7646	0.6968	1.3379	-53.9099	-6.1743	29.0698	25.2500 
983.620	0.6211	0.4443	0.6528	-49.9109	-5.5756	28.5205	25.2400 
983.639	0.6255	0.2681	0.8560	-45.2692	-5.0922	27.5757	25.2500 
983.660	0.5889	0.1440	1.0376	-40.5780	-4.8175	26.4990	25.2300 
983.679	0.4541	-0.0459	1.1621	-35.2167	-5.0537	25.4718	25.2300 
983.699	0.2705	-0.2144	1.1016	-29.1522	-5.8447	24.5105	25.2300 
983.719	-0.0083	-0.4204	1.2280	-22.7087	-6.8939	23.5547	25.2100 
983.739	-0.1450	-0.4917	1.2568	-16.4191	-7.9871	22.6538	25.2100 
983.791	-0.2368	-0.5928	1.2671	-10.5304	-8.9648	21.9452	25.2200 
983.793	-0.1738	-0.6411	1.4043	-4.9384	-9.7668	21.4453	25.2200 
983.799	-0.0176	-0.6465	1.5723	0.3625	-10.4205	21.2421	25.2300 
983.819	0.0688	-0.6641	1.5894	5.4987	-11.1401	21.1487	25.2000 
983.840	0.1182	-0.7422	1.6421	10.3217	-12.1783	21.0663	25.2000 
983.859	0.1558	-0.7725	1.7778	14.8755	-13.4473	20.9454	25.1900 
983.879	0.2393	-0.8774	1.8701	19.3140	-14.8315	20.8136	25.2000 
983.899	0.2617	-0.9199	1.5137	23.8074	-16.4191	20.7257	25.1700 
983.918	-0.0566	-1.0308	1.0508	28.1689	-18.2977	20.3027	25.2100 
983.939	-0.2837	-1.2036	0.8813	32.0032	-20.1709	19.3854	25.1900 
983.979	-0.7100	-1.7329	0.5132	34.6948	-22.0166	18.5669	25.1900 
983.982	-0.6226	-2.0591	0.2861	36.1285	-24.3347	18.2648	25.1900 
983.998	-0.1333	-1.7759	0.2539	35.7990	-26.6364	18.9844	25.1800 
984.018	0.3511	-1.8145	-0.1387	33.7390	-27.6910	20.6982	25.1800 
984.038	0.1680	0.7500	0.6479	29.2731	-25.3839	23.0988	25.1900 
984.058	-0.5752	0.3184	0.4160	25.1752	-22.2034	23.5657	25.1600 
984.078	-1.7935	-0.2290	1.6479	20.5060	-19.7314	23.2416	25.1500 
984.097	1.6064	-0.7095	3.7393	14.9030	-19.3964	23.3130	25.1900 
984.117	-0.2993	-0.3032	2.2017	8.9703	-19.7150	23.6316	25.2200 
984.138	0.1421	-0.1528	1.3613	5.8282	-20.3412	23.4833	25.2300 
984.157	0.1616	-0.0957	1.1196	4.5648	-20.4291	23.2361	25.2300 
984.177	0.1128	-0.1191	1.0864	3.7848	-20.4236	23.0823	25.2300 
984.236	0.1118	-0.0894	1.0557	3.3289	-20.3906	22.9010	25.2200 
984.236	0.1162	-0.0718	1.0171	2.8894	-20.3247	22.7307	25.2200 
984.238	0.1509	-0.0767	1.0044	2.4115	-20.3467	22.5604	25.2200 
984.257	0.1821	-0.1123	1.0107	1.9171	-20.4456	22.5330	25.2400 
984.276	0.1416	-0.1284	1.0464	1.4447	-20.5170	22.5494	25.2400 
984.296	0.1509	-0.1035	1.0068	0.5823	-20.4675	22.6208	25.2400 
984.336	0.1460	-0.1333	1.0098	0.0659	-20.3741	22.7032	25.2300 
984.357	0.1406	-0.1382	1.0083	-0.4010	-20.1874	22.7856	25.2300 
984.376	0.1436	-0.1616	1.0200	-0.9119	-19.9072	22.8351	25.2400 
984.427	0.1343	-0.1567	1.0171	-1.5106	-19.5227	22.8516	25.2300 
984.430	0.1416	-0.1592	1.0029	-2.1973	-19.0393	22.8461	25.2300 
984.436	0.1387	-0.1626	0.9961	-2.9608	-18.5504	22.8571	25.2200 
984.455	0.1353	-0.1758	1.0010	-3.7408	-18.0560	22.8790	25.2400 
984.476	0.1250	-0.1753	1.0059	-4.4440	-17.5726	22.9065	25.2400 
984.495	0.0996	-0.2266	1.0259	-5.1855	-17.0947	22.8900	25.2400 
984.516	0.1040	-0.2197	1.0049	-5.8063	-16.5509	22.7692	25.2500 
984.535	0.0986	-0.2153	1.0093	-6.0095	-15.9576	22.5110	25.2500 
984.555	0.0957	-0.2139	1.0210	-6.1084	-15.3973	22.1594	25.2500 
984.576	0.0845	-0.2363	1.0410	-6.2952	-14.8755	21.7694	25.2500 
984.613	0.0913	-0.2207	1.0488	-6.5973	-14.3976	21.4069	25.2600 
984.616	0.0903	-0.1958	1.0444	-7.2235	-14.0076	21.1377	25.2500 
984.635	0.0962	-0.2075	1.0469	-8.3221	-13.6615	20.9839	25.2400 
984.656	0.0747	0.0356	1.0796	-9.7888	-13.3319	21.1322	25.2500 
984.674	0.0186	0.4307	1.3022	-12.2003	-13.0188	21.9891	25.2500 
984.694	0.1328	0.0386	1.8433	-18.9130	-12.7771	23.6536	25.2600 
984.714	0.3174	0.0400	1.7666	-31.0803	-12.7606	25.9937	25.2500 
984.734	0.6138	0.0542	2.0601	-45.6702	-12.2388	29.0479	25.2500 
984.756	0.5200	-0.7573	4.9355	-55.0580	-9.2615	29.7675	25.2300 
984.807	0.9092	0.4829	1.6221	-54.8547	-7.2949	30.3387	25.2300 
984.809	0.7461	0.3516	0.3022	-51.1578	-6.4160	30.7013	25.2500 
984.814	0.6919	0.1250	0.4517	-47.1918	-6.0315	30.5475	25.2400 
984.834	0.6860	0.0894	1.0171	-43.3521	-6.1249	30.0311	25.2300 
984.854	0.3677	-0.0420	1.3281	-38.4576	-6.9543	29.2181	25.2400 
984.873	0.0610	-0.1860	1.2349	-32.6898	-8.2452	28.2019	25.2200 
984.893	-0.2632	-0.3911	1.0493	-26.4990	-9.6735	27.2186	25.2200 
984.913	-0.3711	-0.4980	1.0552	-20.3851	-10.9863	26.4001	25.2200 
984.933	-0.3252	-0.5879	1.2515	-14.7931	-12.1674	26.0266	25.2300 
984.956	-0.3208	-0.6035	1.3433	-9.5306	-13.1342	25.8398	25.2300 
984.993	-0.2676	-0.6162	1.4033	-4.5483	-13.9581	25.8948	25.2100 
984.995	-0.0884	-0.6357	1.4502	0.1099	-14.9689	26.1530	25.2100 
985.013	0.1084	-0.6421	1.5327	4.4604	-16.1005	26.4111	25.2000 
985.032	0.1621	-0.6387	1.5342	8.6243	-17.1991	26.4056	25.2100 
985.053	0.2900	-0.6318	1.6118	12.5409	-18.3252	26.0266	25.2100 
985.072	0.3799	-0.6523	1.5225	16.3312	-19.4513	25.3235	25.1900 
985.093	0.3423	-0.7388	1.2734	20.1270	-20.4401	24.1315	25.2100 
985.112	0.0781	-0.7690	1.0879	23.9612	-21.3409	22.6154	25.1900 
985.132	-0.2983	-0.7715	0.8799	27.6416	-22.2089	20.9015	25.1900 
985.154	-0.4810	-0.7876	0.8369	31.1298	-21.6486	17.7484	25.2000 
985.172	-0.5894	-0.8535	0.8804	33.8599	-20.6653	14.9414	25.1900 
985.192	-0.4678	-0.8804	0.5894	35.8813	-19.8743	13.2440	25.1900 
985.229	-0.1880	-0.7856	0.5381	36.7822	-20.0775	13.4912	25.1900 
985.232	0.1143	-0.6377	0.6997	36.6174	-20.8685	15.3534	25.1900 
985.251	0.2300	-0.6016	0.8750	36.0132	-21.4398	17.2375	25.2000 
985.271	-0.1963	-0.8457	-0.6157	33.8763	-21.5936	18.9514	25.2100 
985.293	-0.1226	0.6597	0.1079	30.6354	-19.3744	20.6104	25.1900 
985.311	-0.5400	-0.1914	0.1792	25.3619	-18.3252	21.0223	25.1800 
985.331	0.3804	0.2690	1.0874	18.4955	-19.2261	21.1157	25.1900 
985.351	-1.0293	-1.1904	3.6299	9.0363	-19.7479	22.3242	25.2200 
985.373	0.2925	-0.3887	1.3423	5.3174	-20.4401	22.5220	25.2200 
985.419	0.2451	-0.1997	1.0254	3.7793	-20.5664	22.5714	25.2200 
985.421	0.2495	-0.1230	1.0078	2.6147	-20.3632	22.7252	25.2300 
985.433	0.1968	-0.1519	1.0850	1.9775	-19.8303	22.7747	25.2200 
985.451	0.1680	-0.1602	1.1152	1.9336	-19.3414	22.7197	25.2200 
985.470	0.1543	-0.1528	1.0562	1.7358	-19.0887	22.6318	25.2200 
985.490	0.1709	-0.1626	1.0400	1.5820	-18.9240	22.5385	25.2300 
985.510	0.1782	-0.1528	1.0210	1.5436	-18.8251	22.4561	25.2400 
985.530	0.1729	-0.1362	1.0103	1.4447	-18.7042	22.3682	25.2400 
985.550	0.1689	-0.1274	1.0073	1.2909	-18.5559	22.2803	25.2300 
985.569	0.1758	-0.1260	0.9937	1.1316	-18.4460	22.2144	25.2400 
985.605	0.1763	-0.1270	0.9985	0.9558	-18.3252	22.1429	25.2500 
985.610	0.1777	-0.1387	1.0132	0.7581	-18.1549	22.0880	25.2400 
985.630	0.1685	-0.1499	1.0112	0.5383	-17.9352	22.0331	25.2400 
985.650	0.1665	-0.1440	1.0098	0.3241	-17.7649	21.9781	25.2300 
985.669	0.1709	-0.1406	1.0107	0.2142	-17.6495	21.9067	25.2200 
985.689	0.1733	-0.1401	1.0083	0.2032	-17.5067	21.8408	25.2300 
985.709	0.1685	-0.1406	1.0151	0.1428	-17.3969	21.7859	25.2400 
985.730	0.1641	-0.1348	1.0029	0.0549	-17.3199	21.7365	25.2400 
985.749	0.1631	-0.1382	1.0093	0.0165	-17.2266	21.6760	25.2300 
985.768	0.1704	-0.1401	1.0127	0.0549	-17.0673	21.6101	25.2200 
985.789	0.1733	-0.1265	1.0063	0.0879	-16.8860	21.5442	25.2200 
985.842	0.1646	-0.1328	1.0132	0.0000	-16.6882	21.4893	25.2300 
985.844	0.1606	-0.1328	1.0049	-0.1373	-16.5125	21.4233	25.2300 
985.849	0.1543	-0.1270	1.0107	-0.2252	-16.3641	21.3629	25.2300 
985.869	0.1675	-0.1270	1.0044	-0.3516	-16.2323	21.3025	25.2400 
985.888	0.1704	-0.1260	0.9985	-0.5603	-16.1115	21.2640	25.2300 
985.908	0.1709	-0.1372	1.0083	-0.8459	-15.9302	21.2476	25.2300 
985.930	0.1680	-0.1489	1.0029	-1.1865	-15.6940	21.2750	25.2300 
985.950	0.1655	-0.1558	1.0020	-1.5271	-15.4413	21.3354	25.2400 
985.968	0.1523	-0.1484	1.0024	-1.8347	-15.1501	21.3904	25.2400 
985.988	0.1211	-0.1572	1.0142	-2.1478	-14.8206	21.4124	25.2400 
986.031	0.1216	-0.1577	1.0156	-2.4390	-14.5129	21.3904	25.2300 
986.033	0.1235	-0.1621	1.0151	-2.7081	-14.2657	21.3519	25.2500 
986.048	0.1230	-0.1729	1.0176	-2.9993	-14.0845	21.3300	25.2300 
986.067	0.1279	-0.1699	1.0205	-3.2520	-13.9471	21.3354	25.2300 
986.087	0.1211	-0.1699	1.0225	-3.5046	-13.8043	21.3959	25.2300 
986.107	0.0527	-0.1382	1.0327	-3.8342	-13.6615	21.5607	25.2400 
986.127	0.0112	-0.1143	1.0376	-4.1638	-13.5626	21.9891	25.2500 
986.147	0.0234	-0.1382	1.0391	-4.5538	-13.6066	23.1702	25.2500 
986.167	0.0874	-0.1704	1.0073	-5.0647	-13.7878	25.2081	25.2500 
986.222	0.1113	-0.2212	0.9985	-5.6030	-13.9746	27.9822	25.2400 
986.224	0.1401	-0.2544	0.9961	-6.1633	-14.1394	31.1298	25.2500 
986.226	0.1714	-0.2783	0.9863	-6.6687	-14.2712	34.4366	25.2400 
986.246	0.2007	-0.2861	0.9941	-7.0258	-14.3756	37.5897	25.2300 
986.266	0.3550	-0.2949	0.9678	-7.1356	-14.5184	40.1495	25.2200 
986.286	0.0889	-0.2388	1.0664	-6.9983	-14.6887	41.6052	25.2300 
986.306	0.1060	-0.1465	0.9746	-6.4984	-14.6997	41.4130	25.2400 
986.326	0.1616	-0.1792	1.0142	-6.1139	-14.7766	41.0779	25.2300 
986.346	0.1631	-0.1553	1.0122	-5.8008	-14.8315	40.7758	25.2500 
986.366	0.1938	-0.1411	0.9883	-5.5701	-14.8590	40.5890	25.2300 
986.414	0.1704	-0.1440	0.9922	-5.4547	-14.7931	40.5121	25.2600 
986.419	0.1406	-0.1313	0.9844	-5.3668	-14.6558	40.4517	25.2500 
986.426	0.1377	-0.1284	0.9883	-5.2679	-14.4965	40.3857	25.2500 
986.446	0.1299	-0.1455	1.0132	-5.1965	-14.3646	40.3088	25.2500 
986.466	0.1396	-0.1460	1.0146	-5.1581	-14.2712	40.2264	25.2400 
986.485	0.1553	-0.1519	1.0122	-5.1526	-14.1888	40.1550	25.2400 
986.505	0.1553	-0.1436	1.0068	-5.1581	-14.0900	40.0946	25.2500 
986.525	0.1479	-0.1396	1.0024	-5.1801	-13.9746	40.0452	25.2500 
986.545	0.1348	-0.1460	1.0161	-5.1910	-13.8428	40.0012	25.2400 
986.565	0.1289	-0.1484	1.0220	-5.1636	-13.7219	39.9408	25.2400 
986.587	0.1372	-0.1460	1.0161	-5.1031	-13.6340	39.8639	25.2500 
986.605	0.1450	-0.1382	1.0083	-5.0262	-13.5791	39.7650	25.2400 
986.664	0.1494	-0.1362	1.0073	-4.9329	-13.5352	39.6716	25.2500 
986.665	0.1470	-0.1343	1.0122	-4.8560	-13.4802	39.6002	25.2500 
986.666	0.1426	-0.1318	1.0127	-4.8065	-13.4253	39.5343	25.2300 
986.693	0.1382	-0.1348	1.0146	-4.7791	-13.3649	39.4629	25.2500 
986.705	0.1396	-0.1338	1.0127	-4.7516	-13.3099	39.3970	25.2500 
986.724	0.1460	-0.1265	1.0073	-4.7076	-13.2605	39.3146	25.2500 
986.744	0.1460	-0.1250	1.0088	-4.6637	-13.2166	39.2322	25.2500 
986.764	0.1455	-0.1274	1.0122	-4.6472	-13.1616	39.1718	25.2500 
986.786	0.1479	-0.1240	1.0107	-4.6472	-13.0957	39.1113	25.2500 
986.804	0.1445	-0.1274	1.0127	-4.6912	-13.0243	39.0509	25.2500 
986.861	0.1445	-0.1279	1.0117	-4.7461	-12.9529	38.9850	25.2400 
986.863	0.1460	-0.1279	1.0103	-4.8120	-12.8815	38.9136	25.2400 
986.868	0.1460	-0.1304	1.0137	-4.8724	-12.8046	38.8586	25.2500 
986.884	0.1470	-0.1313	1.0137	-4.9329	-12.7277	38.8092	25.2600 
986.903	0.1465	-0.1333	1.0166	-4.9933	-12.6508	38.7598	25.2600 
986.923	0.1450	-0.1323	1.0127	-5.0427	-12.5793	38.7103	25.2500 
986.943	0.1440	-0.1304	1.0093	-5.0867	-12.4969	38.6609	25.2400 
986.964	0.1421	-0.1333	1.0112	-5.1306	-12.4200	38.6005	25.2500 
986.983	0.1460	-0.1338	1.0117	-5.1691	-12.3376	38.5400	25.2500 
987.003	0.1470	-0.1338	1.0122	-5.2020	-12.2607	38.4741	25.2400 
987.054	0.1465	-0.1333	1.0098	-5.2350	-12.1893	38.4082	25.2600 
987.057	0.1440	-0.1323	1.0127	-5.2625	-12.1124	38.3533	25.2500 
987.062	0.1431	-0.1313	1.0068	-5.2899	-12.0410	38.3038	25.2500 
987.082	0.1416	-0.1313	1.0132	-5.3229	-11.9751	38.2654	25.2600 
987.102	0.1431	-0.1318	1.0146	-5.3668	-11.9147	38.2214	25.2500 
987.122	0.1450	-0.1348	1.0132	-5.4218	-11.8597	38.1830	25.2500 
987.142	0.1436	-0.1348	1.0103	-5.4767	-11.8103	38.1445	25.2500 
987.161	0.1431	-0.1353	1.0122	-5.5261	-11.7554	38.1171	25.2500 
987.184	0.1406	-0.1348	1.0122	-5.5756	-11.7004	38.0951	25.2500 
987.202	0.1445	-0.1372	1.0117	-5.6250	-11.6510	38.0621	25.2500 
987.247	0.1445	-0.1367	1.0122	-5.6689	-11.6071	38.0347	25.2500 
987.250	0.1416	-0.1367	1.0112	-5.7019	-11.5631	38.0072	25.2300 
987.262	0.1445	-0.1333	1.0093	-5.7294	-11.5247	37.9688	25.2500 
987.281	0.1436	-0.1353	1.0107	-5.7458	-11.4807	37.9358	25.2500 
987.301	0.1431	-0.1357	1.0098	-5.7678	-11.4368	37.9083	25.2600 
987.321	0.1445	-0.1343	1.0107	-5.7843	-11.3928	37.8809	25.2500 
987.341	0.1440	-0.1338	1.0117	-5.7953	-11.3489	37.8699	25.2500 
987.361	0.1436	-0.1343	1.0117	-5.8008	-11.2994	37.8534	25.2400 
987.381	0.1455	-0.1338	1.0107	-5.8008	-11.2500	37.8369	25.2500 
987.440	0.1440	-0.1333	1.0112	-5.7953	-11.2006	37.8094	25.2600 
987.443	0.1440	-0.1333	1.0107	-5.7898	-11.1566	37.7875	25.2600 
987.443	0.1450	-0.1338	1.0107	-5.7843	-11.1127	37.7600	25.2600 
987.460	0.1421	-0.1348	1.0161	-5.7733	-11.0687	37.7325	25.2600 
987.480	0.1440	-0.1323	1.0137	-5.7568	-11.0248	37.6996	25.2600 
987.500	0.1445	-0.1309	1.0137	-5.7404	-10.9863	37.6721	25.2700 
987.520	0.1470	-0.1304	1.0112	-5.7239	-10.9424	37.6392	25.2600 
987.540	0.1436	-0.1309	1.0107	-5.7239	-10.8984	37.6062	25.2500 
987.560	0.1440	-0.1323	1.0151	-5.7349	-10.8545	37.5787	25.2500 
987.580	0.1426	-0.1313	1.0151	-5.7458	-10.8160	37.5513	25.2700 
987.631	0.1436	-0.1309	1.0151	-5.7513	-10.7831	37.5128	25.2600 
987.637	0.1445	-0.1304	1.0112	-5.7568	-10.7556	37.4744	25.2700 
987.642	0.1445	-0.1299	1.0127	-5.7623	-10.7281	37.4414	25.2600 
987.659	0.1455	-0.1289	1.0132	-5.7678	-10.7007	37.4030	25.2600 
987.682	0.1450	-0.1294	1.0142	-5.7733	-10.6677	37.3755	25.2600 
987.699	0.1431	-0.1294	1.0127	-5.7788	-10.6348	37.3645	25.2700 
987.719	0.1436	-0.1309	1.0142	-5.7843	-10.6073	37.3480	25.2600 
987.739	0.1460	-0.1270	1.0083	-5.7898	-10.5743	37.3206	25.2700 
987.760	0.1436	-0.1274	1.0098	-5.7953	-10.5469	37.2821	25.2700 
987.778	0.1450	-0.1284	1.0132	-5.8063	-10.5194	37.2382	25.2600 
987.798	0.1470	-0.1284	1.0122	-5.8173	-10.4919	37.1887	25.2600 
987.819	0.1475	-0.1294	1.0146	-5.8228	-10.4590	37.1558	25.2700 
987.881	0.1465	-0.1284	1.0142	-5.8282	-10.4205	37.1118	25.2600 
987.883	0.1470	-0.1260	1.0103	-5.8392	-10.3766	37.0624	25.2700 
987.883	0.1460	-0.1284	1.0117	-5.8612	-10.3326	37.0239	25.2600 
987.898	0.1484	-0.1279	1.0127	-5.8777	-10.2942	36.9910	25.2700 
987.919	0.1470	-0.1289	1.0122	-5.8942	-10.2502	36.9525	25.2500 
987.938	0.1455	-0.1294	1.0103	-5.9106	-10.2118	36.9141	25.2500 
987.958	0.1465	-0.1274	1.0088	-5.9161	-10.1733	36.8701	25.2800 
987.978	0.1470	-0.1274	1.0112	-5.9271	-10.1404	36.8372	25.2600 
988.000	0.1479	-0.1299	1.0117	-5.9381	-10.1019	36.8042	25.2800 
988.017	0.1475	-0.1289	1.0122	-5.9601	-10.0635	36.7767	25.2500 
988.069	0.1450	-0.1294	1.0127	-5.9821	-10.0305	36.7438	25.2700 
988.072	0.1460	-0.1274	1.0132	-6.0040	-9.9976	36.7163	25.2500 
988.077	0.1460	-0.1270	1.0112	-6.0260	-9.9701	36.6888	25.2800 
988.097	0.1465	-0.1279	1.0122	-6.0480	-9.9426	36.6614	25.2600 
988.117	0.1450	-0.1294	1.0107	-6.0645	-9.9207	36.6394	25.2500 
988.137	0.1484	-0.1294	1.0132	-6.0864	-9.9042	36.6229	25.2600 
988.157	0.1465	-0.1279	1.0117	-6.1029	-9.8822	36.6119	25.2700 
988.177	0.1455	-0.1270	1.0098	-6.1194	-9.8547	36.6064	25.2700 
988.196	0.1470	-0.1260	1.0093	-6.1414	-9.8273	36.5955	25.2700 
988.216	0.1460	-0.1299	1.0132	-6.1633	-9.7998	36.5955	25.2800 
988.257	0.1455	-0.1299	1.0117	-6.1743	-9.7778	36.5955	25.2600 
988.260	0.1460	-0.1274	1.0112	-6.1743	-9.7559	36.5845	25.2800 
988.276	0.1455	-0.1284	1.0107	-6.1633	-9.7339	36.5790	25.2700 
988.296	0.1460	-0.1289	1.0132	-6.1578	-9.7174	36.5790	25.2600 
988.316	0.1460	-0.1289	1.0122	-6.1523	-9.6899	36.5680	25.2600 
988.336	0.1479	-0.1274	1.0117	-6.1359	-9.6625	36.5570	25.2700 
988.356	0.1460	-0.1260	1.0132	-6.1194	-9.6350	36.5405	25.2600 
988.376	0.1460	-0.1235	1.0112	-6.1084	-9.6021	36.5295	25.2700 
988.395	0.1460	-0.1270	1.0122	-6.1084	-9.5691	36.5131	25.2700 
988.451	0.1470	-0.1274	1.0122	-6.1084	-9.5471	36.5076	25.2700 
988.455	0.1484	-0.1260	1.0107	-6.1084	-9.5251	36.4966	25.2700 
988.459	0.1455	-0.1265	1.0146	-6.1084	-9.5032	36.4856	25.2700 
988.475	0.1465	-0.1240	1.0132	-6.1084	-9.4757	36.4746	25.2800 
988.495	0.1455	-0.1250	1.0107	-6.1194	-9.4537	36.4581	25.2700 
988.515	0.1470	-0.1235	1.0098	-6.1359	-9.4263	36.4417	25.2700 
988.535	0.1455	-0.1270	1.0122	-6.1633	-9.3988	36.4197	25.2700 
988.555	0.1499	-0.1270	1.0127	-6.1853	-9.3768	36.4032	25.2800 
988.575	0.1479	-0.1284	1.0127	-6.2073	-9.3604	36.3867	25.2700 
988.595	0.1475	-0.1245	1.0137	-6.2292	-9.3384	36.3593	25.2600 
988.643	0.1470	-0.1260	1.0112	-6.2457	-9.3219	36.3263	25.2800 
988.648	0.1460	-0.1270	1.0137	-6.2732	-9.2999	36.2988	25.2800 
988.655	0.1465	-0.1284	1.0117	-6.3007	-9.2780	36.2878	25.2800 
988.674	0.1465	-0.1274	1.0122	-6.3281	-9.2560	36.2769	25.2800 
988.694	0.1460	-0.1284	1.0132	-6.3556	-9.2285	36.2659	25.2800 
988.714	0.1470	-0.1279	1.0156	-6.3831	-9.1956	36.2604	25.2800 
988.733	0.1475	-0.1279	1.0107	-6.4105	-9.1736	36.2604	25.2800 
988.754	0.1470	-0.1299	1.0127	-6.4325	-9.1461	36.2549	25.2700 
988.774	0.1450	-0.1304	1.0127	-6.4545	-9.1187	36.2439	25.2800 
988.794	0.1460	-0.1284	1.0122	-6.4764	-9.0912	36.2329	25.2800 
988.813	0.1450	-0.1289	1.0132	-6.4929	-9.0637	36.2329	25.2900 
988.833	0.1455	-0.1299	1.0117	-6.5149	-9.0308	36.2384	25.2600 
988.887	0.1450	-0.1304	1.0127	-6.5369	-9.0033	36.2329	25.2700 
988.889	0.1455	-0.1313	1.0146	-6.5588	-8.9758	36.2274	25.2800 
988.893	0.1460	-0.1294	1.0127	-6.5698	-8.9484	36.2274	25.2800 
988.913	0.1440	-0.1289	1.0103	-6.5753	-8.9209	36.2274	25.2800 
988.933	0.1445	-0.1299	1.0117	-6.5863	-8.8934	36.2219	25.2700 
988.953	0.1440	-0.1289	1.0132	-6.5973	-8.8770	36.2109	25.2800 
988.975	0.1460	-0.1313	1.0137	-6.6028	-8.8550	36.2000	25.2800 
988.995	0.1455	-0.1289	1.0107	-6.6083	-8.8440	36.2000	25.2700 
989.015	0.1445	-0.1299	1.0127	-6.6193	-8.8275	36.1945	25.2800 
989.032	0.1460	-0.1294	1.0117	-6.6302	-8.8165	36.1890	25.2800 
989.077	0.1455	-0.1294	1.0107	-6.6357	-8.8055	36.1835	25.2800 
989.088	0.1455	-0.1313	1.0117	-6.6467	-8.7946	36.1725	25.2800 
989.092	0.1455	-0.1294	1.0117	-6.6522	-8.7836	36.1560	25.2800 
989.111	0.1460	-0.1299	1.0112	-6.6632	-8.7726	36.1340	25.2900 
989.132	0.1455	-0.1304	1.0107	-6.6742	-8.7616	36.1121	25.2800 
989.152	0.1450	-0.1299	1.0142	-6.6852	-8.7451	36.0901	25.2900 
989.172	0.1455	-0.1309	1.0127	-6.6962	-8.7286	36.0736	25.2800 
989.191	0.1465	-0.1313	1.0137	-6.7017	-8.7122	36.0516	25.2800 
989.211	0.1460	-0.1294	1.0117	-6.7072	-8.6957	36.0461	25.2800 
989.268	0.1455	-0.1279	1.0107	-6.7126	-8.6792	36.0461	25.2800 
989.272	0.1460	-0.1304	1.0127	-6.7181	-8.6627	36.0406	25.2800 
989.272	0.1436	-0.1299	1.0137	-6.7236	-8.6462	36.0406	25.2800 
989.291	0.1475	-0.1313	1.0122	-6.7236	-8.6298	36.0406	25.3000 
989.311	0.1450	-0.1294	1.0112	-6.7236	-8.6078	36.0242	25.2900 
989.331	0.1455	-0.1284	1.0127	-6.7236	-8.5858	36.0022	25.2900 
989.355	0.1440	-0.1279	1.0132	-6.7236	-8.5638	35.9857	25.3000 
989.370	0.1450	-0.1313	1.0137	-6.7291	-8.5419	35.9857	25.2900 
989.390	0.1440	-0.1328	1.0127	-6.7401	-8.5254	35.9692	25.3100 
989.410	0.1450	-0.1284	1.0132	-6.7456	-8.5089	35.9418	25.2800 
989.458	0.1450	-0.1284	1.0103	-6.7566	-8.4979	35.9253	25.2900 
989.462	0.1460	-0.1274	1.0122	-6.7621	-8.4814	35.9198	25.2800 
989.471	0.1445	-0.1304	1.0142	-6.7786	-8.4650	35.9143	25.2800 
989.490	0.1431	-0.1294	1.0107	-6.7896	-8.4485	35.9033	25.3000 
989.510	0.1445	-0.1309	1.0103	-6.8060	-8.4320	35.8868	25.3000 
989.530	0.1426	-0.1309	1.0146	-6.8225	-8.4210	35.8759	25.2800 
989.550	0.1455	-0.1304	1.0117	-6.8335	-8.4155	35.8594	25.2800 
989.569	0.1431	-0.1313	1.0122	-6.8445	-8.4045	35.8374	25.3000 
989.589	0.1465	-0.1284	1.0112	-6.8500	-8.3990	35.8209	25.3000 
989.609	0.1440	-0.1304	1.0117	-6.8610	-8.3881	35.7990	25.3000 
989.631	0.1445	-0.1299	1.0117	-6.8719	-8.3716	35.7935	25.2900 
989.649	0.1445	-0.1313	1.0122	-6.8829	-8.3606	35.7935	25.2800 
989.705	0.1460	-0.1304	1.0146	-6.8939	-8.3496	35.7880	25.3000 
989.707	0.1440	-0.1309	1.0122	-6.8994	-8.3331	35.7880	25.3100 
989.709	0.1436	-0.1313	1.0117	-6.9049	-8.3221	35.7660	25.2900 
989.729	0.1455	-0.1304	1.0127	-6.9104	-8.3057	35.7495	25.3000 
989.749	0.1455	-0.1299	1.0122	-6.9104	-8.2947	35.7385	25.2900 
989.768	0.1450	-0.1309	1.0122	-6.9104	-8.2837	35.7385	25.2800 
989.788	0.1450	-0.1309	1.0122	-6.9159	-8.2672	35.7385	25.2900 
989.808	0.1455	-0.1294	1.0137	-6.9159	-8.2562	35.7330	25.2900 
989.830	0.1465	-0.1309	1.0142	-6.9159	-8.2452	35.7275	25.2800 
989.848	0.1460	-0.1304	1.0127	-6.9159	-8.2343	35.7166	25.3000 
989.896	0.1436	-0.1304	1.0132	-6.9159	-8.2288	35.7056	25.2900 
989.898	0.1460	-0.1309	1.0137	-6.9104	-8.2233	35.6891	25.2900 
989.908	0.1455	-0.1309	1.0132	-6.9104	-8.2178	35.6726	25.2900 
989.928	0.1455	-0.1284	1.0132	-6.9049	-8.2178	35.6616	25.3000 
989.948	0.1475	-0.1279	1.0117	-6.9104	-8.2178	35.6561	25.3000 
989.967	0.1445	-0.1294	1.0127	-6.9104	-8.2123	35.6451	25.2900 
989.987	0.1440	-0.1313	1.0142	-6.9159	-8.2013	35.6287	25.2900 
990.007	0.1465	-0.1299	1.0146	-6.9214	-8.1958	35.6067	25.3000 
990.029	0.1455	-0.1284	1.0132	-6.9214	-8.1903	35.5902	25.3000 
990.047	0.1445	-0.1279	1.0112	-6.9159	-8.1848	35.5737	25.3000 
990.083	0.1440	-0.1289	1.0127	-6.9159	-8.1738	35.5573	25.2900 
990.087	0.1450	-0.1299	1.0151	-6.9159	-8.1683	35.5518	25.3000 
990.107	0.1460	-0.1313	1.0132	-6.9159	-8.1628	35.5463	25.3000 
990.127	0.1470	-0.1284	1.0122	-6.9104	-8.1573	35.5408	25.3100 
990.146	0.1406	-0.1270	1.0156	-6.9104	-8.1464	35.5298	25.3100 
990.167	0.1436	-0.1279	1.0112	-6.9104	-8.1409	35.5078	25.3100 
990.186	0.1484	-0.1289	1.0127	-6.9104	-8.1409	35.4858	25.3000 
990.206	0.1455	-0.1289	1.0146	-6.9104	-8.1409	35.4529	25.3000 
990.226	0.1455	-0.1279	1.0112	-6.9049	-8.1409	35.4309	25.3100 
990.277	0.1445	-0.1284	1.0107	-6.8994	-8.1354	35.4089	25.3100 
990.281	0.1465	-0.1289	1.0122	-6.8994	-8.1354	35.3870	25.3100 
990.286	0.1450	-0.1279	1.0151	-6.9049	-8.1354	35.3705	25.3000