StartTime: 2018-11-22 16:32:19.868
Time(s)	ax(g)	ay(g)	az(g)	AngleX(deg)	AngleY(deg)	AngleZ(deg)	T(Â°) 
724.258	0.1631	-0.0728	1.0176	-3.8892	-8.4705	7.4817	26.0000 
724.278	0.1636	-0.0703	1.0186	-3.9056	-8.4814	7.4762	25.9900 
724.298	0.1660	-0.0718	1.0146	-3.9166	-8.4869	7.4817	26.0000 
724.318	0.1670	-0.0703	1.0146	-3.9166	-8.4979	7.4872	26.0000 
724.338	0.1680	-0.0684	1.0107	-3.9166	-8.5034	7.4982	25.9900 
724.357	0.1650	-0.0708	1.0166	-3.9276	-8.4979	7.5092	26.0000 
724.414	0.1655	-0.0732	1.0190	-3.9386	-8.4979	7.5146	26.0000 
724.417	0.1631	-0.0718	1.0176	-3.9386	-8.4979	7.5092	26.0000 
724.419	0.1626	-0.0718	1.0166	-3.9386	-8.4979	7.5037	25.9900 
724.437	0.1650	-0.0742	1.0234	-3.9386	-8.4979	7.4982	25.9900 
724.457	0.1650	-0.0781	1.0298	-3.9276	-8.4924	7.4817	26.0100 
724.477	0.1680	-0.0728	1.0200	-3.9001	-8.4814	7.4707	26.0000 
724.497	0.1670	-0.0669	1.0073	-3.8562	-8.4650	7.4597	26.0100 
724.516	0.1670	-0.0620	1.0059	-3.8068	-8.4375	7.4597	26.0100 
724.537	0.1650	-0.0640	1.0103	-3.7628	-8.4155	7.4707	26.0100 
724.556	0.1606	-0.0664	1.0156	-3.7244	-8.3936	7.4817	26.0100 
724.603	0.1577	-0.0640	1.0151	-3.6804	-8.3881	7.4707	26.0200 
724.605	0.1650	-0.0586	1.0059	-3.6310	-8.3936	7.4542	26.0100 
724.618	0.1611	-0.0605	1.0122	-3.6090	-8.3990	7.4432	26.0000 
724.638	0.1616	-0.0659	1.0181	-3.5925	-8.4100	7.4323	26.0100 
724.656	0.1636	-0.0654	1.0195	-3.5760	-8.4320	7.4158	26.0200 
724.676	0.1670	-0.0674	1.0200	-3.5596	-8.4540	7.4103	26.0100 
724.696	0.1621	-0.0635	1.0146	-3.5321	-8.4705	7.4048	26.0100 
724.716	0.1641	-0.0674	1.0156	-3.4991	-8.4814	7.4048	26.0100 
724.735	0.1660	-0.0591	1.0107	-3.4442	-8.4924	7.4103	26.0100 
724.755	0.1680	-0.0669	1.0215	-3.3948	-8.5034	7.4213	26.0200 
724.791	0.1650	-0.0645	1.0220	-3.3344	-8.5144	7.4213	26.0000 
724.795	0.1621	-0.0576	1.0171	-3.2574	-8.5254	7.4103	26.0100 
724.815	0.1548	-0.0547	1.0205	-3.1750	-8.5309	7.3938	26.0200 
724.835	0.1626	-0.0537	1.0190	-3.0927	-8.5529	7.3718	26.0100 
724.855	0.1646	-0.0518	1.0190	-3.0103	-8.5748	7.3553	25.9900 
724.875	0.1650	-0.0513	1.0176	-2.9498	-8.5968	7.3444	26.0100 
724.895	0.1665	-0.0513	1.0137	-2.9114	-8.6188	7.3389	26.0200 
724.915	0.1680	-0.0464	1.0098	-2.8784	-8.6243	7.3279	26.0200 
724.935	0.1631	-0.0479	1.0146	-2.8619	-8.6188	7.3224	26.0300 
724.957	0.1650	-0.0518	1.0166	-2.8619	-8.6133	7.3169	26.0300 
724.974	0.1660	-0.0508	1.0186	-2.8619	-8.6078	7.3059	26.0200 
724.997	0.1646	-0.0518	1.0190	-2.8619	-8.5968	7.2949	26.0100 
725.033	0.1748	-0.0498	1.0127	-2.8619	-8.5638	7.2784	26.0200 
725.036	0.1694	-0.0498	1.0112	-2.8674	-8.5309	7.2620	26.0100 
725.056	0.1528	-0.0435	1.0132	-2.8894	-8.4924	7.2455	26.0100 
725.074	0.1606	-0.0425	1.0059	-2.9114	-8.4869	7.2345	26.0200 
725.094	0.1597	-0.0493	1.0107	-2.9498	-8.5144	7.2290	26.0200 
725.114	0.1631	-0.0542	1.0142	-2.9883	-8.5199	7.2235	26.0100 
725.134	0.1660	-0.0552	1.0151	-3.0322	-8.5199	7.2180	26.0100 
725.154	0.1646	-0.0576	1.0166	-3.0762	-8.5034	7.2125	26.0200 
725.173	0.1655	-0.0542	1.0151	-3.1256	-8.4705	7.2125	26.0400 
725.226	0.1646	-0.0576	1.0166	-3.1970	-8.4155	7.2290	26.0100 
725.228	0.1567	-0.0630	1.0234	-3.2629	-8.3496	7.2510	26.0100 
725.233	0.1670	-0.0596	1.0146	-3.3014	-8.2727	7.2675	26.0200 
725.253	0.1689	-0.0591	1.0132	-3.3453	-8.2068	7.2949	26.0200 
725.273	0.1699	-0.0552	1.0044	-3.4332	-8.1244	7.3389	26.0100 
725.293	0.1577	-0.0576	1.0078	-3.5925	-8.0090	7.4158	26.0300 
725.312	0.1450	-0.0684	1.0210	-3.7793	-7.8772	7.4982	26.0300 
725.332	0.1489	-0.0674	1.0166	-3.9771	-7.7618	7.5641	26.0300 
725.353	0.1611	-0.0625	1.0054	-4.1968	-7.6630	7.6355	26.0200 
725.373	0.1616	-0.0562	0.9951	-4.5099	-7.5531	7.7454	26.0200 
725.414	0.1338	-0.0742	1.0171	-4.9823	-7.3883	7.9102	26.0400 
725.416	0.1333	-0.0879	1.0151	-5.5646	-7.1246	8.1244	26.0100 
725.432	0.1221	-0.0918	1.0117	-6.2292	-6.7566	8.3276	26.0200 
725.452	0.1084	-0.1016	1.0171	-7.0752	-6.3062	8.4650	26.0300 
725.472	0.1074	-0.1460	1.0278	-8.0695	-5.8063	8.5364	26.0300 
725.492	0.1074	-0.1597	1.0264	-9.1571	-5.3119	8.5529	26.0200 
725.512	0.1108	-0.1895	1.0220	-10.2338	-4.7955	8.5199	26.0300 
725.531	0.1079	-0.1953	1.0249	-11.1566	-4.1858	8.4155	26.0300 
725.552	0.0938	-0.2109	1.0361	-11.9257	-3.5376	8.2727	26.0400 
725.602	0.0723	-0.2256	1.0259	-12.6892	-2.9169	8.0859	26.0400 
725.606	0.0713	-0.2056	1.0361	-13.5516	-2.3346	7.9102	26.0500 
725.611	0.0718	-0.2192	1.0444	-14.7821	-1.8402	7.8278	26.0400 
725.633	0.1191	-0.1235	1.0957	-16.5509	-1.5436	8.0255	26.0400 
725.652	0.1372	-0.1211	1.1460	-19.4788	-1.2799	8.5638	26.0400 
725.671	0.1206	-0.0562	1.3062	-23.7195	-0.8514	9.5306	26.0500 
725.691	0.3320	-0.1230	1.3384	-29.3005	-0.0659	10.8655	26.0400 
725.711	0.5366	-0.3711	1.4229	-35.9418	2.0599	12.0575	26.0700 
725.730	0.3965	0.4219	1.9849	-41.4294	5.7294	12.0795	26.0600 
725.751	0.7529	0.1572	2.2598	-43.1049	7.7124	11.7334	26.0300 
725.770	0.7422	0.3867	0.9795	-41.7920	7.7728	11.8048	26.0400 
725.790	0.3770	0.3213	0.7813	-39.4794	7.6080	11.2939	26.0200 
725.840	0.3291	0.2769	0.9077	-37.0459	7.1741	10.8875	26.0100 
725.843	0.3110	0.1646	1.0708	-34.0247	6.3226	10.7172	26.0100 
725.850	0.2070	0.1055	1.0337	-30.4706	5.3229	10.4755	26.0100 
725.870	0.0659	0.0103	1.0352	-26.6199	4.1144	10.2393	26.0000 
725.890	-0.0234	-0.0483	1.1333	-22.6044	2.8235	9.9866	26.0000 
725.910	-0.1372	-0.0972	1.2002	-18.5669	1.5985	9.7614	26.0100 
725.930	-0.1387	-0.1167	1.2695	-14.5349	0.4889	9.6405	26.0100 
725.950	-0.1021	-0.1323	1.3379	-10.4755	-0.4449	9.6570	26.0000 
725.971	-0.0557	-0.1616	1.3208	-6.4764	-1.3568	9.8163	26.0100 
725.989	0.0996	-0.2119	1.2285	-2.6642	-2.4170	10.0800	26.0200 
726.033	0.2158	-0.2305	1.2563	0.8405	-3.7024	10.2997	26.0100 
726.036	0.3354	-0.2339	1.4570	4.0649	-5.1471	10.2173	26.0000 
726.053	0.3555	-0.2412	1.4473	7.2015	-6.6522	9.6570	26.0000 
726.069	0.3579	-0.2783	1.3257	10.2942	-8.1573	8.5913	26.0100 
726.089	0.3384	-0.3213	1.2705	13.2166	-9.5801	6.9928	26.0100 
726.109	0.2153	-0.3770	1.3086	15.9137	-10.6952	4.7955	26.0100 
726.129	-0.0298	-0.4014	1.3237	18.4460	-11.2006	1.8402	25.9900 
726.149	-0.3105	-0.4053	1.2217	20.9454	-11.2061	-1.5710	26.0100 
726.170	-0.4526	-0.4243	1.1821	23.2910	-10.9644	-4.6912	26.0000 
726.221	-0.6094	-0.5020	1.0356	25.3839	-10.6238	-7.0532	26.0100 
726.223	-0.5815	-0.5957	0.8223	27.1527	-10.2997	-8.4595	25.9900 
726.229	-0.2471	-0.7310	0.7075	28.3118	-9.9976	-9.0747	26.0100 
726.248	-0.0874	-0.7446	0.7075	28.9105	-9.5197	-9.3329	26.0100 
726.269	0.0840	-1.0117	0.5742	29.0149	-9.1791	-8.9813	26.0000 
726.290	-0.0083	-1.1978	0.4277	28.3942	-9.5361	-6.8829	26.0000 
726.308	0.0713	-0.4297	0.2251	26.0101	-7.1851	-5.4163	26.0000 
726.330	0.8115	0.4302	1.0742	22.9340	-5.9271	-3.4222	25.9800 
726.348	-0.4111	-0.0762	1.3330	19.0503	-4.3396	-2.4115	25.9600 
726.369	-0.4619	0.0386	1.5488	15.1227	-3.0487	-2.4609	25.9900 
726.412	0.7944	-0.0186	2.2095	10.6183	-2.9993	-2.0819	26.0100 
726.415	-0.2930	-0.3691	2.3066	5.4382	-3.5211	-1.3953	26.0300 
726.427	0.1025	-0.1074	1.3330	2.6367	-4.6143	-1.4722	26.0400 
726.447	0.1440	-0.0972	1.1616	1.6864	-4.8395	-1.4886	26.0300 
726.471	0.1094	-0.0552	1.0654	1.3403	-4.7351	-1.4777	26.0400 
726.487	0.1260	-0.0381	1.0083	1.1316	-4.5868	-1.4996	26.0400 
726.507	0.1226	-0.0483	1.0317	0.9613	-4.5648	-1.5216	26.0400 
726.527	0.1240	-0.0508	1.0405	0.6537	-4.6198	-1.5436	26.0400 
726.547	0.1499	-0.0571	1.0273	0.3680	-4.7076	-1.5161	26.0400 
726.567	0.1313	-0.0728	1.0234	0.1208	-4.8010	-1.4612	26.0500 
726.587	0.1221	-0.0674	1.0142	-0.2417	-4.9329	-1.4172	26.0400 
726.606	0.1401	-0.0688	1.0083	-0.5768	-5.1416	-1.3568	26.0500 
726.661	0.1509	-0.0776	1.0073	-0.8459	-5.2899	-1.2744	26.0400 
726.665	0.1592	-0.0903	1.0117	-1.1371	-5.3668	-1.1646	26.0300 
726.666	0.1616	-0.0796	1.0088	-1.3403	-5.3833	-1.0382	26.0500 
726.686	0.1528	-0.0850	1.0151	-1.5546	-5.3448	-0.8789	26.0600 
726.706	0.1382	-0.0840	1.0142	-1.8347	-5.2625	-0.7086	26.0500 
726.726	0.1353	-0.0742	1.0034	-2.0984	-5.2240	-0.4944	26.0600 
726.746	0.1348	-0.0581	0.9971	-2.4939	-5.1801	-0.2527	26.0600 
726.766	0.1230	-0.1050	1.0039	-3.1201	-5.0482	0.0769	26.0600 
726.787	0.1191	-0.1084	1.0078	-3.8013	-4.7186	0.4010	26.0500 
726.807	0.0981	-0.1260	1.0200	-4.6307	-4.2792	0.6702	26.0500 
726.858	0.0835	-0.1582	1.0220	-5.6305	-3.8013	0.8624	26.0600 
726.861	0.0947	-0.1860	1.0356	-6.6742	-3.3289	0.9943	26.0500 
726.865	0.0918	-0.1992	1.0215	-7.6849	-2.9004	1.0547	26.0500 
726.885	0.0771	-0.1953	1.0205	-8.5529	-2.4939	1.0217	26.0500 
726.905	0.0806	-0.2251	1.0186	-9.3384	-2.1368	0.9009	26.0600 
726.925	0.0684	-0.2339	1.0249	-9.9811	-1.8237	0.7086	26.0600 
726.945	0.0688	-0.2275	1.0425	-10.5908	-1.5216	0.4779	26.0600 
726.965	0.0674	-0.2471	1.0356	-11.4478	-1.2030	0.2472	26.0700 
726.985	0.0732	-0.2280	1.0361	-12.5574	-0.9229	0.0934	26.0700 
727.005	0.1196	-0.1641	1.0571	-14.1943	-0.7141	0.1758	26.0800 
727.051	0.1074	-0.0894	1.1016	-16.2927	-0.5493	0.6427	26.0600 
727.055	0.1714	0.0298	1.5220	-20.1984	-0.4559	1.6699	26.0700 
727.064	0.2231	0.0747	1.7188	-27.2461	0.0000	2.8894	26.0700 
727.084	0.5229	0.0552	1.6123	-37.9358	0.7196	4.1473	26.0700 
727.104	0.4194	0.0762	2.2817	-48.6639	2.9114	4.5483	26.0700 
727.124	0.8594	0.3936	3.6177	-54.3768	5.6140	3.5870	26.0500 
727.144	0.9541	0.5317	1.3706	-53.3661	6.2183	3.8782	26.0500 
727.165	0.6689	0.3369	0.8091	-50.3943	6.1743	3.3618	26.0700 
727.185	0.5308	0.3281	1.0884	-46.8182	6.0590	1.9446	26.0600 
727.243	0.3208	0.2065	1.1724	-42.6270	5.5920	0.5109	26.0400 
727.246	0.1826	0.0859	1.1016	-37.7710	4.8010	-0.6427	26.0400 
727.246	-0.0625	-0.0762	0.9541	-32.3657	3.9496	-1.4886	26.0400 
727.263	-0.1069	-0.1787	0.9946	-26.7297	3.0487	-1.9006	26.0400 
727.283	-0.1196	-0.2739	1.2212	-21.0388	2.1533	-2.0764	26.0300 
727.303	-0.2036	-0.3320	1.2637	-15.4907	1.3403	-2.2412	26.0300 
727.323	-0.3433	-0.3516	1.3335	-10.1074	0.5383	-2.3785	26.0100 
727.343	-0.4390	-0.2900	1.3135	-4.9603	-0.2362	-2.3236	26.0100 
727.363	-0.3618	-0.3926	1.5552	-0.3241	-1.1920	-1.7743	26.0100 
727.382	-0.1523	-0.4482	1.7222	3.9935	-2.5214	-0.7855	26.0000 
727.432	0.1558	-0.5742	1.7915	8.2288	-4.0375	0.2087	26.0100 
727.435	0.2500	-0.7378	1.7061	12.3596	-5.6085	0.8075	26.0000 
727.443	0.2158	-1.0269	1.6514	16.2982	-7.1356	0.7745	26.0100 
727.462	0.0894	-1.1582	1.5552	20.3522	-8.4814	0.4395	26.0000 
727.482	-0.2705	-1.2681	1.0615	24.5984	-8.5913	-1.3239	26.0200 
727.502	-0.4409	-1.4448	0.8892	28.3997	-7.5531	-4.0100	26.0100 
727.525	-0.5483	-1.7412	0.4780	31.2231	-6.4105	-5.9491	25.9900 
727.542	-0.5552	-1.9175	0.3169	32.9865	-5.3064	-7.2180	26.0000 
727.562	-0.7632	-2.5381	-0.2070	32.7393	-4.1473	-7.5037	26.0000 
727.582	-0.3872	-0.2183	0.3213	30.0696	-2.4170	-6.2842	25.9900 
727.602	0.9863	0.0459	0.7622	26.5704	-2.1643	-3.5815	25.9800 
727.622	-0.0552	-0.2158	1.1895	21.8848	-1.8018	-1.3348	25.9600 
727.676	1.0234	-0.3081	2.9224	15.9851	-2.0380	-0.7690	25.9900 
727.680	0.0073	-0.5762	2.3335	10.2942	-2.8400	0.0824	26.0000 
727.683	0.2324	-0.1440	1.3418	7.0477	-3.7354	-0.2472	26.0400 
727.701	0.0791	-0.0503	1.2432	5.4327	-4.3231	-0.3296	26.0400 
727.721	0.1470	-0.0571	1.1304	4.7296	-4.4440	-0.3021	26.0400 
727.740	0.1372	-0.0562	1.0645	4.3066	-4.5374	-0.2252	26.0400 
727.761	0.1406	-0.0415	1.0293	4.0594	-4.7076	-0.1263	26.0400 
727.781	0.1514	-0.0483	1.0195	3.8232	-4.9658	-0.0330	26.0500 
727.801	0.1729	-0.0684	1.0405	3.7024	-5.3229	0.0549	26.0400 
727.820	0.2002	-0.0605	1.0083	3.6365	-5.7458	0.1703	26.0400 
727.868	0.2095	-0.0635	0.9980	3.5706	-6.1414	0.3351	26.0400 
727.870	0.1953	-0.0425	0.9780	3.5431	-6.4655	0.4889	26.0500 
727.880	0.2114	-0.0371	0.9712	3.5156	-6.7346	0.6482	26.0400 
727.900	0.2231	-0.0435	0.9761	3.3563	-6.8555	0.8295	26.0600 
727.920	0.2227	-0.0469	0.9902	2.9718	-6.8170	1.0492	26.0600 
727.940	0.2056	-0.0952	1.0439	2.4335	-6.7401	1.2744	26.0400 
727.965	0.2056	-0.0698	1.0078	1.9666	-6.7017	1.5051	26.0400 
727.980	0.1968	-0.0742	1.0127	1.4777	-6.6907	1.7523	26.0300 
728.002	0.1978	-0.0791	1.0024	1.0052	-6.6962	2.0215	26.0400 
728.020	0.1880	-0.0859	1.0103	0.5988	-6.6083	2.3346	26.0500 
728.056	0.1602	-0.0972	1.0059	0.1978	-6.4105	2.6642	26.0400 
728.059	0.1626	-0.0894	0.9868	-0.1923	-6.2183	2.9663	26.0500 
728.079	0.1709	-0.0879	0.9858	-0.6921	-6.0150	3.2520	26.0400 
728.099	0.1733	-0.1299	1.0020	-1.4172	-5.7239	3.5431	26.0500 
728.119	0.1807	-0.1343	1.0171	-2.2577	-5.3394	3.8177	26.0700 
728.139	0.1660	-0.1602	1.0103	-3.2245	-4.8834	4.0759	26.0500 
728.159	0.1440	-0.1753	1.0176	-4.2517	-4.4275	4.2957	26.0700 
728.181	0.1372	-0.2290	1.0654	-5.1196	-4.0265	4.4604	26.0600 
728.199	0.1333	-0.2085	1.0596	-5.8832	-3.7134	4.5923	26.0600 
728.243	0.1367	-0.1987	1.0664	-6.9104	-3.5046	4.7626	26.0800 
728.246	0.1289	-0.2012	1.0586	-8.3716	-3.3234	4.9658	26.0800 
728.259	0.1685	-0.0947	1.0518	-10.4755	-3.2080	5.3174	26.0700 
728.279	0.1470	-0.0259	1.0840	-13.1342	-3.0322	5.8722	26.0700 
728.298	0.1021	0.2788	1.4814	-16.7157	-2.6422	6.7950	26.0700 
728.318	0.1660	0.1812	1.7437	-23.4943	-2.1039	8.2727	26.0800 
728.338	0.7021	-0.1255	1.5645	-33.2776	-1.9391	10.3271	26.0700 
728.358	0.6831	-0.0278	1.3433	-43.3136	-1.1041	12.6288	26.0700 
728.378	0.9824	-0.0757	3.9873	-51.6467	1.9171	12.8320	26.0700 
728.398	1.0508	0.4917	2.5117	-53.3551	3.8123	12.4091	26.0700 
728.419	0.6602	0.3467	0.8340	-51.1194	4.5868	11.5686	26.0500 
728.437	0.5405	0.2651	0.6787	-47.2467	5.0262	10.2283	26.0500 
728.487	0.5264	0.1187	0.7397	-43.0719	5.2734	8.8715	26.0600 
728.489	0.5303	0.0278	0.8628	-38.5126	5.3503	7.6465	26.0500 
728.497	0.4839	-0.1147	1.0771	-33.2996	5.1141	6.6028	26.0500 
728.517	0.3433	-0.2104	0.9731	-27.5372	4.3121	5.7404	26.0500 
728.537	0.0918	-0.3882	1.0508	-21.7474	3.1311	4.9988	26.0500 
728.559	-0.0322	-0.4521	1.1821	-16.2708	1.7468	4.4330	26.0400 
728.577	-0.1592	-0.5093	1.3306	-11.0468	0.3131	4.0649	26.0300 
728.597	-0.1621	-0.5400	1.4238	-5.9601	-1.0876	3.9111	26.0100 
728.616	-0.0088	-0.5923	1.5112	-1.0657	-2.4280	4.0649	26.0200 
728.637	0.1235	-0.6113	1.5742	3.7079	-3.7189	4.2847	26.0300 
728.673	0.1631	-0.6426	1.7417	8.4869	-4.8669	4.3341	26.0200 
728.676	0.0962	-0.6787	1.7603	13.3868	-5.8447	4.1638	26.0100 
728.696	0.2529	-0.8213	1.5801	18.1055	-6.9269	4.0759	26.0200 
728.716	0.3643	-0.9536	1.3999	22.4231	-8.2617	4.0979	26.0300 
728.736	0.2095	-1.0649	1.0806	26.2244	-9.6185	3.6914	26.0100 
728.756	-0.1025	-1.1670	1.0029	29.6082	-10.9918	2.6862	26.0100 
728.777	-0.5386	-1.5850	0.7427	32.5580	-10.2118	-0.7361	26.0200 
728.796	-0.9082	-1.9277	0.3262	34.6674	-8.8770	-3.3179	26.0100 
728.817	-0.1968	-2.1260	0.0938	34.9146	-8.5474	-3.9551	26.0100 
728.892	-0.0522	-1.5249	0.2910	32.9041	-9.1901	-2.3291	26.0000 
728.895	0.0293	0.8071	0.7490	29.6631	-7.1411	-0.2307	25.9900 
728.896	-0.2500	0.1792	0.5229	25.9497	-4.7241	0.9119	25.9900 
728.898	-1.0430	-0.1851	1.7241	21.3904	-3.0432	1.0107	25.9800 
728.916	0.6582	-0.0327	1.5796	16.6223	-3.3728	1.3184	25.9800 
728.935	0.9756	-1.5239	2.8643	10.4700	-4.8230	2.3950	26.0200 
728.955	0.2041	-0.1646	1.4023	6.9983	-5.9106	2.0709	26.0400 
728.975	0.0215	-0.1045	1.2793	5.8887	-6.0699	2.0874	26.0500 
728.995	0.0664	-0.0928	1.1255	5.4492	-6.0699	2.1918	26.0400 
729.015	0.1108	-0.0630	1.0459	5.0867	-6.0205	2.2577	26.0400 
729.035	0.1162	-0.0640	1.0186	4.7955	-5.9711	2.2961	26.0400 
729.082	0.1133	-0.0552	1.0122	4.4275	-6.0260	2.2906	26.0400 
729.084	0.1831	-0.0703	1.0166	4.0649	-6.2512	2.3730	26.0300 
729.094	0.1714	-0.0864	1.0088	3.6475	-6.5863	2.5543	26.0400 
729.114	0.1572	-0.1230	1.0449	3.1476	-6.9489	2.7136	26.0400 
729.134	0.1587	-0.1040	1.0112	2.7466	-7.2015	2.8949	26.0400 
729.154	0.1665	-0.0947	0.9956	2.4060	-7.3553	3.0817	26.0300 
729.174	0.1553	-0.1035	1.0127	2.1259	-7.3773	3.2849	26.0400 
729.194	0.1538	-0.0967	1.0078	1.8018	-7.2784	3.4827	26.0600 
729.214	0.1797	-0.0840	0.9854	1.2854	-7.0752	3.7354	26.0500 
729.234	0.1597	-0.0986	0.9839	0.6262	-6.7126	4.0979	26.0400 
729.268	0.1401	-0.1455	1.0210	-0.1263	-6.2622	4.4934	26.0600 
729.273	0.1021	-0.1348	1.0034	-0.8844	-5.6909	4.8505	26.0400 
729.294	0.1064	-0.1445	1.0044	-1.6095	-5.0867	5.1361	26.0400 
729.314	0.0981	-0.1826	1.0327	-2.4170	-4.4714	5.3174	26.0700 
729.333	0.1060	-0.1948	1.0322	-3.0762	-3.9001	5.4053	26.0600 
729.353	0.0874	-0.1880	1.0229	-3.3618	-3.3948	5.3503	26.0600 
729.373	0.0898	-0.1816	1.0503	-3.5760	-2.9773	5.2185	26.0700 
729.393	0.0830	-0.2236	1.0674	-4.1803	-2.6697	5.0537	26.0800 
729.413	0.0811	-0.1934	1.0552	-5.1471	-2.3840	4.9603	26.0700 
729.433	0.0757	-0.1909	1.0210	-6.4984	-2.0929	4.9219	26.0700 
729.453	0.1074	-0.1279	1.0151	-8.4540	-1.8182	5.0098	26.0700 
729.507	0.0703	-0.0693	1.0684	-11.2280	-1.5546	5.4547	26.0800 
729.510	0.1636	0.4756	1.7085	-15.1886	-1.4392	6.5149	26.0800 
729.512	0.1270	0.0449	1.7725	-23.5492	-0.9723	7.8278	26.0700 
729.532	0.5020	0.1045	1.9609	-35.6781	-0.6317	9.7119	26.0700 
729.552	0.2593	-1.1226	4.3525	-47.1698	1.3403	10.8600	26.0600 
729.572	0.6948	0.7710	3.5742	-50.6525	3.9606	10.6952	26.0500 
729.592	0.9717	0.5596	0.7505	-48.9990	4.9988	11.5027	26.0500 
729.612	0.8794	0.4570	0.7144	-46.1920	5.5646	11.3269	26.0800 
729.632	0.7100	0.3882	1.2690	-42.6874	5.6580	10.4315	26.0600 
729.652	0.5640	0.2891	1.3315	-38.0566	4.9219	9.4482	26.0400 
729.693	0.2544	0.0210	1.1973	-32.8766	3.6584	8.4155	26.0500 
729.696	0.0225	-0.1162	1.1201	-27.1198	2.2906	7.3993	26.0200 
729.711	-0.2153	-0.3037	1.1436	-20.9290	0.9448	6.6083	26.0200 
729.731	-0.3096	-0.3730	1.2109	-14.7656	-0.3571	6.1633	26.0300 
729.751	-0.3838	-0.4648	1.3809	-9.0747	-1.5820	6.0864	26.0200 
729.771	-0.3247	-0.4902	1.4790	-3.6035	-2.7246	6.3281	26.0300 
729.791	-0.1367	-0.5527	1.5327	1.6864	-3.8397	6.8774	26.0100 
729.811	-0.0142	-0.6152	1.5347	6.6962	-5.0537	7.4927	26.0100 
729.832	0.1616	-0.7183	1.6748	11.2555	-6.5314	8.0365	26.0100 
729.897	0.2104	-0.7471	1.9307	15.6226	-8.1683	8.3221	26.0200 
729.899	0.4282	-0.9131	2.0474	19.9951	-9.8547	8.1793	26.0000 
729.899	0.5024	-1.1860	1.6831	24.6149	-11.4807	7.8552	26.0100 
729.911	0.1260	-1.6465	1.0513	29.4379	-12.8430	6.6193	26.0000 
729.931	-0.3579	-2.1040	0.6831	33.7885	-13.7604	4.4110	26.0100 
729.950	-1.3135	-2.7148	0.0576	36.9141	-12.3486	0.6866	26.0100 
729.970	-1.1162	-2.4927	-0.4565	37.9633	-11.3654	-1.7139	25.9900 
729.990	-0.6436	-0.9956	0.6807	34.8267	-8.7396	-1.0437	25.9800 
730.010	0.3257	0.5942	1.1001	30.7123	-5.8118	1.2415	25.9800 
730.031	-0.4824	-0.4170	1.8828	25.6805	-4.0759	3.2190	25.9600 
730.086	-0.5791	-0.0928	2.1704	20.4510	-3.2190	3.2794	25.9900 
730.089	1.5918	-1.5439	3.1533	15.1501	-3.8837	4.1199	25.9800 
730.091	-0.2896	-0.0146	1.9756	10.5963	-4.7516	4.0540	26.0400 
730.109	0.0142	-0.0698	1.3359	8.0090	-5.5591	4.0210	26.0400 
730.129	0.0894	-0.0640	1.1172	6.6687	-5.8063	4.0430	26.0500 
730.149	0.1284	-0.1284	1.0869	5.6909	-5.9546	4.1309	26.0400 
730.169	0.0732	-0.0933	1.0659	4.9988	-6.1798	4.1254	26.0400 
730.189	0.1289	-0.0952	1.0571	4.4055	-6.4984	4.0979	26.0400 
730.209	0.1943	-0.1182	1.0288	3.9111	-6.8170	4.1473	26.0300 
730.230	0.1875	-0.1172	1.0073	3.4167	-7.0532	4.2847	26.0300 
730.286	0.1567	-0.1226	1.0215	2.9224	-7.2345	4.4550	26.0300 
730.288	0.1436	-0.1177	1.0073	2.4060	-7.3773	4.6198	26.0400 
730.290	0.1455	-0.1543	1.0161	1.8951	-7.4377	4.7845	26.0400 
730.308	0.1563	-0.1606	1.0093	1.4282	-7.4432	4.9274	26.0400 
730.328	0.1777	-0.1523	0.9912	0.8734	-7.3993	5.0482	26.0300 
730.348	0.1772	-0.1465	0.9810	0.2856	-7.2784	5.2075	26.0400 
730.368	0.1758	-0.1436	0.9844	-0.3571	-7.0203	5.4218	26.0400 
730.388	0.1533	-0.1553	0.9995	-1.0931	-6.6742	5.6964	26.0400 
730.411	0.1436	-0.1685	0.9893	-1.7249	-6.3062	5.9656	26.0300 
730.428	0.1436	-0.1636	0.9868	-2.2137	-5.8887	6.2347	26.0400 
730.475	0.1157	-0.1694	0.9946	-2.6477	-5.3613	6.4490	26.0400 
730.479	0.1104	-0.2231	1.0303	-2.9993	-4.7791	6.6248	26.0500 
730.487	0.0771	-0.2188	1.0366	-3.1915	-4.1638	6.6577	26.0600 
730.507	0.0752	-0.2104	1.0449	-3.3673	-3.6145	6.5698	26.0600 
730.527	0.0664	-0.2153	1.0625	-3.7244	-3.1641	6.3666	26.0600 
730.547	0.0791	-0.2031	1.0771	-4.4055	-2.8455	6.1798	26.0600 
730.567	0.0898	-0.1138	1.0996	-5.6030	-2.7356	6.1578	26.0600 
730.587	0.1006	0.0703	0.9941	-7.3279	-2.7246	6.4435	26.0600 
730.607	0.1289	0.3745	1.5371	-10.9039	-2.6642	7.6355	26.0700 
730.627	0.0591	0.4531	2.0859	-19.0009	-2.6202	9.2175	26.0800 
730.648	0.6924	0.3125	2.0620	-32.0746	-3.2300	11.9531	26.0400 
730.667	0.5903	-0.2441	3.8374	-43.2806	-1.6479	13.8812	26.0400 
730.716	1.0923	0.9912	2.4199	-46.4886	1.6864	14.1284	26.0200 
730.720	1.3130	0.5557	0.6226	-44.9176	3.2300	14.8975	26.0100 
730.726	1.0488	0.3975	0.6782	-41.8359	4.1418	14.2822	26.0200 
730.746	0.7554	0.3999	0.9819	-37.9358	4.3616	12.8815	26.0200 
730.766	0.3550	0.1899	0.9434	-33.3820	3.8397	11.5906	26.0200 
730.786	0.1294	0.0356	0.9717	-28.1360	2.8564	10.6952	26.0100 
730.808	-0.0146	-0.2061	1.0913	-22.6263	1.7358	10.1788	26.0000 
730.826	-0.0752	-0.3140	1.1499	-17.0453	0.5713	9.9207	26.0000 
730.847	-0.1660	-0.4409	1.2744	-11.7719	-0.6262	9.8053	26.0200 
730.866	-0.1914	-0.4517	1.4092	-6.6962	-1.8127	9.8163	26.0000 
730.906	-0.2158	-0.4521	1.4985	-1.6479	-2.9388	9.9701	26.0000 
730.909	-0.1255	-0.5132	1.5791	3.2300	-4.1418	10.3436	26.0100 
730.925	0.0776	-0.5913	1.6162	7.8882	-5.5701	10.8380	26.0000 
730.945	0.1519	-0.6362	1.6816	12.3706	-7.1741	11.1566	26.0100 
730.965	0.2959	-0.7456	1.8140	16.6718	-8.8275	11.0962	26.0000 
730.985	0.3638	-0.8701	1.7944	20.9070	-10.4260	10.5798	26.0000 
731.005	0.3018	-1.1489	1.5181	25.1422	-11.7169	9.4153	25.9800 
731.026	-0.0459	-1.4331	1.1318	29.5587	-12.7057	7.7563	25.9900 
731.046	-0.8521	-2.1274	0.6392	33.7006	-12.2168	4.5868	25.9800 
731.092	-1.4458	-2.5889	0.1968	36.7108	-10.6238	1.1041	25.9800 
731.095	-0.7402	-1.6914	-0.7227	37.3755	-9.6954	-0.5603	25.9800 
731.105	-0.4990	-1.1455	0.7939	34.6564	-7.7289	0.0110	25.9700 
731.125	0.8965	0.5996	0.1514	30.7617	-5.9930	2.8400	25.9700 
731.144	0.6245	-0.1177	0.9214	26.1584	-4.3341	5.4932	25.9600 
731.164	-1.1865	0.0156	2.1333	20.4950	-2.7631	5.6909	25.9500 
731.184	1.5542	-2.3115	3.7456	14.2877	-3.3563	6.2567	25.9900 
731.204	-0.0552	-0.0552	1.6699	9.5856	-4.9109	6.0260	26.0100 
731.224	-0.0137	-0.1182	1.3066	7.6190	-5.7239	5.8612	26.0100 
731.244	0.1885	-0.0991	1.0859	6.7731	-5.8997	5.7953	26.0200 
731.264	0.1377	-0.0869	1.0132	6.0645	-5.9491	5.8447	26.0200 
731.284	0.1108	-0.0884	1.0664	5.4712	-6.1029	5.9106	26.0200 
731.347	0.0962	-0.0933	1.0415	4.8834	-6.2183	5.9491	26.0100 
731.351	0.1294	-0.0723	1.0078	4.4165	-6.3556	5.9436	26.0100 
731.351	0.1929	-0.1177	0.9873	3.8782	-6.6412	6.0150	26.0300 
731.363	0.1880	-0.1318	1.0063	3.4442	-7.0313	6.1633	26.0400 
731.383	0.1709	-0.1245	1.0034	3.0267	-7.2620	6.3501	26.0400 
731.402	0.1543	-0.1240	1.0166	2.5818	-7.3993	6.5643	26.0300 
731.422	0.1636	-0.1279	1.0054	2.0819	-7.4762	6.7950	26.0400 
731.443	0.1533	-0.1357	1.0010	1.5271	-7.4927	7.0532	26.0100 
731.463	0.1450	-0.1426	1.0078	0.8569	-7.4103	7.2949	26.0400 
731.483	0.1470	-0.1631	1.0137	0.0824	-7.2290	7.5421	26.0200 
731.532	0.1538	-0.1621	0.9883	-0.8350	-6.9159	7.7948	26.0300 
731.534	0.1543	-0.1626	0.9766	-1.9720	-6.5039	8.0804	26.0400 
731.542	0.1343	-0.1909	0.9819	-3.2904	-6.0205	8.4045	26.0200 
731.563	0.1172	-0.2690	1.0352	-4.7461	-5.4767	8.7231	26.0200 
731.582	0.0908	-0.2803	1.0220	-5.9326	-4.9164	8.8934	26.0200 
731.602	0.0972	-0.2695	1.0186	-6.6522	-4.4165	8.9374	26.0300 
731.622	0.0918	-0.2920	1.0386	-7.1356	-4.0155	8.8660	26.0400 
731.642	0.0923	-0.2949	1.0454	-7.7069	-3.6090	8.7836	26.0300 
731.662	0.0938	-0.2559	1.0479	-8.4650	-3.1311	8.7122	26.0300 
731.682	0.0991	-0.2476	1.0513	-9.5361	-2.6752	8.7286	26.0500 
731.720	0.1309	0.0356	1.1572	-11.1237	-2.4994	9.1846	26.0400 
731.722	0.0298	0.2461	1.8003	-15.1227	-2.4500	10.3381	26.0700 
731.746	0.3979	-0.0654	1.9624	-25.5103	-2.3511	12.2058	26.0500 
731.761	0.6426	0.0938	1.6313	-38.9520	-1.9611	14.3976	26.0400 
731.781	0.5591	-0.2852	5.0464	-47.2742	1.8896	13.4802	26.0100 
731.801	0.9771	0.9761	2.7266	-48.0817	4.1693	13.2495	26.0200 
731.821	0.8804	0.6582	0.8081	-44.6759	5.0702	13.0573	26.0200 
731.841	0.7603	0.4595	0.8921	-40.4901	5.8777	11.9696	26.0100 
731.861	0.5957	0.2681	1.0771	-36.0681	6.2842	10.6897	26.0100 
731.905	0.4785	0.0884	1.0327	-30.9430	5.9216	9.7449	26.0100 
731.908	0.2964	-0.1748	1.0923	-25.3070	5.0647	9.0143	26.0000 
731.921	0.1328	-0.3320	1.0464	-19.7205	3.9606	8.4869	26.0000 
731.940	-0.0962	-0.4839	1.1489	-14.1504	2.5873	8.2343	26.0200 
731.961	-0.1274	-0.5215	1.3110	-8.6023	0.9668	8.2617	26.0100 
731.985	-0.1826	-0.5200	1.3564	-3.4058	-0.7855	8.4045	26.0000 
732.000	-0.3154	-0.5356	1.4849	1.3239	-2.5433	8.4540	25.9800 
732.020	-0.2759	-0.6099	1.5210	5.8447	-4.3726	8.6243	26.0000 
732.040	-0.1128	-0.6631	1.4922	10.1459	-6.1633	9.1187	25.9800 
732.099	0.1250	-0.6958	1.8071	14.2603	-7.8223	9.8712	25.9900 
732.103	0.2896	-0.7524	1.9595	18.4570	-9.4373	10.4480	25.9900 
732.103	0.5054	-0.9756	1.5796	22.9065	-11.0522	10.5414	25.9700 
732.121	0.4434	-1.1851	1.5234	27.3944	-12.2388	9.9152	25.9700 
732.141	-0.1924	-1.5313	0.9541	31.8658	-12.9913	8.3331	25.9700 
732.160	-0.6699	-2.0068	0.5195	35.9528	-13.3319	5.6360	25.9700 
732.180	-1.3701	-2.5459	0.0337	38.6115	-12.2443	2.2028	25.9700 
732.200	-1.0479	-2.0718	-0.6704	39.1718	-11.1401	0.3845	25.9700 
732.220	-0.7104	0.0537	0.9790	35.5682	-8.0640	1.6370	25.9500 
732.239	0.2515	0.5122	0.4321	31.4978	-5.2625	4.1199	25.9400 
732.259	-0.6743	-0.3052	2.0405	25.9937	-3.5321	5.8392	25.9400 
732.279	0.0630	-0.2554	2.4258	20.4565	-3.1311	5.9436	25.9500 
732.299	-0.1572	-0.2466	1.8022	14.7711	-4.2682	6.5643	25.9900 
732.336	-0.0181	0.0059	1.5488	10.9094	-5.5756	5.8887	26.0000 
732.338	0.1450	-0.1563	1.2354	8.5968	-6.0864	5.9656	26.0100 
732.358	0.0693	-0.1035	1.1577	7.0917	-6.1523	6.2622	26.0100 
732.378	0.1040	-0.1187	1.0708	6.1139	-6.0809	6.4655	26.0000 
732.401	0.0664	-0.1582	1.1309	5.2899	-6.0864	6.5918	26.0200 
732.418	0.1377	-0.1274	1.0576	4.6252	-6.0370	6.6907	26.0200 
732.438	0.1650	-0.1240	1.0303	4.0759	-5.9711	6.8665	26.0100 
732.458	0.1357	-0.1235	1.0171	3.5541	-5.8612	7.0807	26.0100 
732.477	0.1104	-0.1035	1.0029	3.1311	-5.7678	7.2620	26.0100 
732.523	0.1084	-0.1406	1.0024	2.6038	-5.7074	7.4707	26.0100 
732.525	0.1206	-0.1548	1.0049	2.0215	-5.5920	7.6959	26.0100 
732.538	0.1206	-0.1611	1.0137	1.4392	-5.3943	7.8992	26.0100 
732.557	0.1050	-0.1675	1.0200	0.7471	-5.1306	8.0750	26.0000 
732.578	0.1050	-0.1782	1.0073	-0.1923	-4.8669	8.2452	25.9900 
732.597	0.1167	-0.1953	1.0015	-1.2524	-4.5868	8.4320	26.0100 
732.617	0.1118	-0.2104	1.0078	-2.4445	-4.3396	8.6517	26.0000 
732.637	0.1025	-0.2373	0.9980	-3.6969	-4.0979	8.9099	26.0100 
732.657	0.0903	-0.2603	0.9995	-4.8450	-3.7848	9.1736	26.0100 
732.709	0.0767	-0.2720	0.9976	-5.7623	-3.4827	9.3768	26.0200 
732.711	0.0757	-0.2798	1.0020	-6.3831	-3.2135	9.5142	26.0200 
732.717	0.0713	-0.2871	1.0093	-6.7566	-3.0048	9.5636	26.0300 
732.737	0.0659	-0.2798	1.0029	-7.0477	-2.8125	9.5087	26.0200 
732.757	0.0684	-0.2876	1.0020	-7.3718	-2.5928	9.3823	26.0100 
732.777	0.0601	-0.2744	1.0337	-7.7399	-2.3676	9.2450	26.0300 
732.797	0.0801	-0.2471	0.9790	-8.4430	-2.0215	9.1626	26.0400 
732.816	0.1143	-0.2173	0.9595	-9.4702	-1.5765	9.3054	26.0300 
732.836	0.0845	0.1807	1.1572	-10.7941	-1.5106	10.1514	26.0600 
732.857	0.1348	0.2534	1.6841	-14.8755	-1.5546	11.9916	26.0400 
732.875	0.4834	-0.1655	2.0117	-24.5709	-0.9064	14.6667	26.0400 
732.896	0.7134	0.1138	1.7285	-36.8976	1.3239	16.5289	26.0200 
732.950	0.4233	-1.9185	3.4409	-48.6804	6.7017	15.2545	26.0200 
732.952	0.9092	0.3242	3.7661	-53.9758	10.2283	13.3209	26.0200 
732.956	1.0117	0.3452	1.6025	-51.7126	10.1569	14.1998	26.0100 
732.976	0.6416	0.1436	0.8403	-47.0490	8.9209	14.7272	26.0300 
732.995	0.2021	0.0527	0.6172	-41.7480	7.7234	13.7714	26.0100 
733.015	0.0513	0.0190	0.8052	-36.4856	6.9104	12.2552	26.0000 
733.035	-0.1436	0.0601	1.1006	-30.8057	6.5314	10.6787	26.0200 
733.058	-0.3042	0.0444	1.0127	-24.5160	6.2952	9.6460	26.0000 
733.077	-0.3887	-0.1006	0.8794	-18.2593	5.6909	9.6075	26.0000 
733.095	-0.4302	-0.1958	0.9839	-12.3102	4.5538	10.3711	25.9800 
733.139	-0.5278	-0.2900	1.3096	-6.5588	3.1366	11.4917	25.9900 
733.141	-0.4419	-0.3442	1.4771	-0.9338	1.5381	12.7771	25.9800 
733.155	-0.1104	-0.4702	1.7744	4.4385	-0.2911	13.9746	25.9900 
733.175	-0.0825	-0.5527	1.9780	9.6625	-2.1423	14.6338	25.9800 
733.195	-0.2202	-0.6924	1.8945	14.8425	-3.8782	14.7327	25.9700 
733.214	-0.1279	-0.7925	1.8384	19.7314	-5.6854	14.6832	25.9700 
733.234	0.2349	-0.8789	1.6660	24.2853	-7.4432	14.7107	25.9600 
733.254	0.2412	-0.9995	1.2832	28.5754	-8.9539	14.4745	25.9600 
733.276	-0.1475	-1.2422	0.9692	32.3987	-10.3436	13.6340	25.9800 
733.334	-0.4570	-1.5103	0.8438	35.8264	-10.6458	11.4148	25.9600 
733.336	-1.0073	-2.0566	0.2212	38.6444	-9.8767	8.4814	25.9700 
733.336	-0.8164	-1.9614	0.0244	40.1331	-9.1626	6.3831	25.9800 
733.354	-0.7329	-1.8428	0.0869	38.6829	-7.4652	5.9930	25.9600 
733.374	-0.1147	0.2842	0.3740	35.0739	-4.9768	7.1136	25.9500 
733.394	0.2349	-0.1479	1.3447	30.4541	-3.5101	9.3768	25.9300 
733.415	-1.1421	-0.1782	1.5615	24.8730	-1.8896	10.1843	25.9300 
733.433	1.4785	-2.4365	4.0313	18.0396	-2.4335	10.5853	25.9700 
733.453	-0.6577	-0.1582	2.4355	11.5851	-4.1748	10.5908	25.9800 
733.473	-0.0112	-0.0679	1.2588	9.6405	-4.9933	10.4315	26.0000 
733.533	0.1650	-0.0869	1.1113	8.7067	-5.1801	10.4095	26.0000 
733.538	0.1196	-0.0850	1.0840	7.9980	-5.2844	10.4810	26.0000 
733.538	0.1216	-0.0776	1.0571	7.5092	-5.4437	10.5579	25.9900 
733.553	0.1299	-0.0601	1.0093	7.0148	-5.6580	10.5908	25.9900 
733.573	0.1616	-0.0791	1.0186	6.4490	-5.9711	10.6293	25.9800 
733.593	0.1851	-0.1011	0.9976	5.8667	-6.3666	10.7446	25.9800 
733.613	0.2080	-0.1318	1.0137	5.3119	-6.7566	10.9039	25.9800 
733.632	0.1860	-0.0923	0.9893	4.8944	-6.9873	11.0907	25.9900 
733.652	0.1689	-0.1152	1.0239	4.3561	-7.1246	11.2994	25.9800 
733.672	0.1782	-0.1367	1.0171	3.7518	-7.2455	11.5521	26.0100 
733.722	0.1533	-0.1362	1.0063	3.2190	-7.2949	11.7938	26.0000 
733.725	0.1646	-0.1396	1.0034	2.6862	-7.2894	11.9971	26.0100 
733.732	0.1699	-0.1411	0.9946	2.0819	-7.3059	12.1509	25.9900 
733.752	0.1807	-0.1357	0.9810	1.3568	-7.3279	12.3212	25.9900 
733.772	0.1919	-0.1689	0.9868	0.4010	-7.2620	12.5848	25.9900 
733.792	0.1875	-0.1763	0.9824	-0.6592	-7.0477	12.9089	25.9800 
733.811	0.1440	-0.2021	1.0010	-1.7853	-6.7291	13.2275	26.0000 
733.831	0.1348	-0.2231	1.0044	-2.8070	-6.3940	13.4583	25.9900 
733.852	0.1416	-0.2432	1.0044	-3.5706	-6.0699	13.5516	26.0000 
733.871	0.1548	-0.2515	1.0093	-4.1528	-5.7733	13.5901	26.0100 
733.891	0.1436	-0.2446	1.0244	-4.6582	-5.4767	13.6121	26.0000 
733.911	0.1362	-0.2515	1.0400	-5.2350	-5.1416	13.6505	26.0100 
733.973	0.1226	-0.2554	1.0708	-6.1578	-4.7571	13.7000	26.0000 
733.976	0.1016	-0.2700	1.0659	-7.4213	-4.3396	13.7549	26.0100 
733.976	0.1602	0.0190	1.0156	-8.6902	-3.9001	13.9471	26.0200 
733.992	0.1196	0.3232	1.1523	-10.5304	-3.6639	14.4800	26.0200 
734.011	-0.0586	0.1084	2.0869	-15.8533	-3.3948	15.4852	26.0100 
734.030	0.1362	0.0303	2.0347	-25.6750	-3.8342	17.0123	26.0100 
734.050	0.6348	0.2183	1.4224	-38.9026	-5.3339	19.7369	26.0000 
734.070	0.5249	-1.4961	4.1812	-49.4385	-3.4552	19.8743	25.9900 
734.092	0.5303	0.8198	2.6089	-50.2075	-0.7910	18.4460	25.9800 
734.110	0.6382	0.5811	1.1016	-47.1313	0.9778	17.6935	25.9900 
734.165	0.7729	0.3408	0.7285	-42.4841	2.5763	16.5399	25.9800 
734.167	0.8784	0.2739	1.0752	-37.6886	4.2242	14.9194	25.9900 
734.170	0.7998	0.0737	1.2275	-32.6953	5.3394	13.0737	25.9700 
734.190	0.6157	-0.0747	1.1387	-27.0703	5.7074	11.3928	25.9600 
734.210	0.3164	-0.2476	1.0439	-20.8081	5.3284	9.9701	25.9800 
734.230	0.1538	-0.3477	1.0996	-14.6832	4.7571	8.8165	25.9600 
734.250	-0.0171	-0.5059	1.2349	-8.9758	4.0869	8.1409	25.9700 
734.269	0.0156	-0.5615	1.3203	-3.3618	3.1750	8.0914	25.9700 
734.289	0.0825	-0.5645	1.4570	2.1094	1.9281	8.4265	25.9600 
734.309	0.0498	-0.5654	1.5186	7.2125	0.4285	8.7726	25.9700 
734.351	0.0078	-0.6694	1.8105	11.8707	-1.2854	9.0802	25.9500 
734.353	0.0674	-0.7817	1.9395	16.3367	-3.2080	9.4208	25.9400 
734.369	0.1973	-0.9761	1.7627	20.8630	-5.3119	9.6625	25.9400 
734.389	0.1748	-1.1436	1.6016	25.3949	-7.2565	9.5691	25.9300 
734.409	-0.1279	-1.4414	1.1924	29.7894	-8.6902	8.9209	25.9400 
734.431	-0.4800	-1.8120	0.8838	33.8379	-8.6078	6.8280	25.9400 
734.449	-1.0757	-2.4272	0.3281	36.9690	-7.4213	4.0869	25.9400 
734.469	-1.1313	-2.0449	-0.5347	38.4027	-6.5424	2.3016	25.9400 
734.489	-0.7598	-1.3384	0.4512	36.2329	-4.9713	2.5598	25.9300 
734.539	0.1138	0.8530	1.1055	32.7338	-3.6365	4.8834	25.9300 
734.541	1.0552	-0.4092	1.5439	28.0811	-3.1915	7.9321	25.9100 
734.548	-0.1855	-0.2075	1.6382	23.2031	-2.7905	9.4702	25.9000 
734.568	1.0264	-1.7070	3.3467	17.7374	-3.1311	9.8877	25.9300 
734.588	-0.5513	-0.1060	2.0757	12.0905	-4.5648	10.3601	25.9600 
734.608	0.0762	-0.1401	1.3237	9.5032	-5.4657	10.0800	25.9600 
734.628	0.1436	-0.1079	1.1479	8.2123	-5.6470	9.9646	25.9600 
734.648	0.1479	-0.0840	1.0420	7.6080	-5.7513	9.9866	25.9800 
734.667	0.1108	-0.0571	1.0635	7.3828	-5.8502	9.9976	25.9800 
734.687	0.1416	-0.0674	1.0161	7.0642	-5.9766	9.9976	25.9600 
734.709	0.1343	-0.0767	1.0327	6.6522	-6.1029	9.9976	25.9800 
734.727	0.1616	-0.0757	0.9834	6.2897	-6.2457	10.0195	25.9700 
734.791	0.1626	-0.0669	0.9746	5.9656	-6.4325	10.0635	25.9700 
734.794	0.1641	-0.0723	0.9834	5.6525	-6.7236	10.1404	25.9600 
734.794	0.1768	-0.0771	0.9980	5.2789	-7.0972	10.2338	25.9800 
734.807	0.1699	-0.1099	1.0205	4.7241	-7.3169	10.4041	25.9900 
734.827	0.1675	-0.1060	1.0156	4.1473	-7.3444	10.5963	25.9800 
734.847	0.1582	-0.1011	1.0068	3.4882	-7.3004	10.8160	25.9700 
734.867	0.1699	-0.1108	0.9971	2.8235	-7.2015	11.1017	25.9700 
734.886	0.1426	-0.0972	0.9941	2.1313	-7.0038	11.4203	25.9600 
734.908	0.1172	-0.1597	1.0234	1.2634	-6.6907	11.7444	25.9600 
734.927	0.1270	-0.1519	0.9995	0.2747	-6.3116	12.0026	25.9600 
734.946	0.1221	-0.1709	0.9976	-0.7581	-5.8832	12.2058	25.9700 
734.984	0.1265	-0.1763	1.0024	-1.8457	-5.3833	12.3651	25.9700 
734.988	0.1235	-0.2437	1.0234	-2.9938	-4.8230	12.4585	25.9800 
735.005	0.1177	-0.2432	1.0259	-3.7354	-4.2242	12.4310	25.9800 
735.026	0.1138	-0.2344	1.0532	-4.2462	-3.6804	12.3322	25.9800 
735.046	0.1006	-0.2612	1.0605	-4.9054	-3.1750	12.2168	25.9900 
735.066	0.0737	-0.2012	1.0669	-5.7513	-2.6807	12.1344	25.9700 
735.086	0.1113	-0.2207	1.0479	-6.9928	-2.2742	12.1179	25.9800 
735.106	0.1533	-0.0327	1.1025	-8.9429	-2.0435	12.6013	25.9900 
735.125	0.1172	0.4780	1.7422	-13.0353	-1.9116	13.9362	26.0000 
735.180	0.4424	0.0547	2.1182	-22.9065	-1.4667	15.9576	25.9800 
735.185	0.6772	0.1426	1.6821	-36.3977	-0.3351	18.0835	25.9800 
735.187	0.6318	-1.3657	4.5767	-48.9771	4.0320	17.4518	25.9900 
735.205	1.0947	0.6572	3.8584	-52.7344	7.0093	16.1719	25.9700 
735.225	0.9775	0.5752	1.0620	-49.6692	7.5421	16.0785	25.9800 
735.245	0.8003	0.3843	0.5874	-45.1758	7.2455	15.5511	25.9700 
735.266	0.6260	0.2236	0.8550	-40.6824	6.5863	14.3317	25.9600 
735.285	0.4712	0.1353	1.0615	-35.6561	5.6964	12.9309	25.9600 
735.304	0.2476	-0.0786	1.1875	-29.8389	4.5099	11.5356	25.9700 
735.324	0.0317	-0.2085	1.1426	-23.4393	3.3289	10.1898	25.9600 
735.364	-0.2568	-0.3774	1.1797	-16.6937	2.1973	9.2010	25.9500 
735.368	-0.2896	-0.4756	1.2710	-10.1843	1.0107	8.7122	25.9500 
735.384	-0.2104	-0.5874	1.5181	-4.0594	-0.2417	8.7616	25.9300 
735.404	-0.1587	-0.6255	1.6382	1.8512	-1.5656	8.9484	25.9500 
735.424	-0.0806	-0.6968	1.7964	7.5476	-3.0927	9.0472	25.9500 
735.444	-0.0425	-0.7837	1.8550	13.0133	-4.6472	8.8879	25.9500 
735.464	0.0879	-0.9937	1.8462	18.1165	-6.0590	8.6023	25.9500 
735.483	0.2324	-1.1699	1.8398	22.7472	-7.5641	8.5309	25.9400 
735.503	0.2578	-1.4360	1.5200	27.1967	-9.3109	8.3661	25.9300 
735.556	-0.0151	-1.7329	1.1309	31.5472	-11.0687	7.1741	25.9400 
735.558	-0.9858	-2.5898	0.2949	35.4254	-11.3049	4.4220	25.9300 
735.563	-1.1714	-2.7559	-0.6846	37.6172	-10.4865	1.7688	25.9300 
735.583	-0.5386	-2.2578	-0.1597	35.7825	-8.9813	1.4722	25.9200 
735.603	-0.0532	0.0591	1.4546	31.5637	-6.1194	3.0267	25.9100 
735.623	0.1846	-0.0430	0.9277	27.0538	-4.2023	4.8395	25.8900 
735.643	-1.2905	-0.2544	2.1118	22.2034	-2.7246	5.1526	25.8900 
735.663	1.3726	-1.3662	3.2319	17.4628	-2.9553	5.3943	25.9000 
735.683	-0.2422	-0.0430	1.6582	12.7112	-4.5319	5.6305	25.9200 
735.703	0.2813	-0.1104	1.1846	9.9426	-5.6525	5.3064	25.9600 
735.726	0.1641	-0.0815	1.0928	8.3496	-5.8997	5.2954	25.9600 
735.744	0.1392	-0.1143	1.1143	7.3883	-5.9821	5.4657	25.9600 
735.799	0.1216	-0.1128	1.0894	6.5918	-5.9821	5.6195	25.9600 
735.803	0.1240	-0.0869	1.0391	5.9436	-6.0425	5.6525	25.9600 
735.803	0.1772	-0.1157	1.0566	5.3888	-6.1743	5.7019	25.9800 
735.822	0.1704	-0.1089	1.0190	4.8615	-6.1963	5.8337	25.9600 
735.842	0.1582	-0.1035	1.0229	4.4165	-6.1688	5.9875	25.9600 
735.862	0.1514	-0.1040	1.0073	3.9771	-6.1304	6.1688	25.9500 
735.882	0.1548	-0.1143	0.9985	3.4991	-6.0864	6.3885	25.9600 
735.901	0.1514	-0.1313	0.9990	2.9498	-5.9601	6.6467	25.9700 
735.923	0.1426	-0.1167	0.9824	2.3840	-5.7788	6.9049	25.9500 
735.941	0.1011	-0.1572	1.0298	1.6974	-5.5316	7.1027	25.9500 
735.985	0.1162	-0.1489	1.0054	0.8899	-5.3174	7.2839	25.9400 
735.986	0.1260	-0.1616	1.0015	-0.1373	-5.0482	7.4762	25.9500 
736.001	0.1211	-0.1772	1.0049	-1.2799	-4.7681	7.6740	25.9500 
736.021	0.1250	-0.1919	0.9937	-2.5873	-4.4659	7.8827	25.9600 
736.043	0.1055	-0.2397	1.0054	-3.8123	-4.1254	8.0750	25.9500 
736.061	0.0967	-0.2422	1.0117	-4.6692	-3.7683	8.2068	25.9400 
736.081	0.0688	-0.2632	1.0190	-5.1471	-3.3948	8.1903	25.9500 
736.101	0.0684	-0.2681	1.0186	-5.4382	-3.0377	8.0200	25.9500 
736.121	0.0786	-0.2515	1.0332	-5.6195	-2.6532	7.7563	25.9700 
736.140	0.0845	-0.2197	1.0361	-5.8502	-2.2412	7.4817	25.9600 
736.182	0.1157	-0.2148	1.0786	-6.4764	-1.8896	7.3608	25.9600 
736.185	0.1484	-0.0229	1.0610	-7.5311	-1.6809	7.6245	25.9600 
736.203	0.0571	0.4111	1.3418	-9.6954	-1.7084	8.6792	26.0000 
736.220	0.1641	0.5889	2.1206	-16.0730	-1.7029	10.5029	26.0000 
736.240	0.6099	0.1201	2.0112	-28.0536	-1.5820	12.6398	25.9600 
736.260	0.5981	0.4722	2.0322	-42.2699	0.0824	14.2383	25.9700 
736.280	0.6831	0.7583	4.4136	-49.8010	4.1528	12.6947	25.9600 
736.300	0.8711	0.7856	1.9844	-48.4167	5.8282	13.1342	25.9500 
736.320	0.8774	0.4810	0.5430	-44.5990	6.3885	13.7604	25.9600 
736.370	0.8618	0.3672	0.7061	-40.6165	6.5698	13.5846	25.9700 
736.375	0.5850	0.2378	1.0947	-36.4911	6.2457	12.6617	25.9500 
736.380	0.3438	0.0986	1.2100	-31.5033	5.3174	11.6565	25.9400 
736.399	0.0879	-0.1538	1.1104	-25.6860	3.8617	10.7666	25.9300 
736.419	-0.0659	-0.3491	1.0952	-19.8248	2.3950	9.9481	25.9200 
736.439	-0.2627	-0.5356	1.3301	-13.7714	0.9943	9.3768	25.9300 
736.459	-0.2905	-0.5923	1.3975	-7.5696	-0.4889	9.1406	25.9300 
736.479	-0.2622	-0.6685	1.5039	-1.6479	-2.1204	9.2395	25.9400 
736.499	-0.1680	-0.7402	1.6274	3.8892	-3.8013	9.4263	25.9300 
736.518	-0.0557	-0.8013	1.7090	9.2285	-5.4272	9.4867	25.9200 
736.539	-0.0361	-0.9429	1.8608	14.4031	-6.8500	9.2834	25.9200 
736.558	-0.0024	-1.1870	1.8926	19.5227	-7.9486	8.5693	25.9000 
736.613	0.0947	-1.3672	1.6660	24.7632	-10.0250	9.1351	25.9000 
736.616	0.0308	-1.7568	1.0381	29.4324	-12.0740	8.7451	25.9200 
736.620	-0.2358	-2.1128	0.5908	33.3655	-13.6725	7.5806	25.9000 
736.638	-0.9351	-2.6899	0.0742	36.0956	-13.9471	5.4767	25.9000 
736.658	-0.3867	-1.9272	-0.6885	36.7438	-14.7217	3.8947	25.9100 
736.680	0.0020	-0.3750	1.2495	33.6731	-14.2877	4.3671	25.9000 
736.697	0.0239	0.6670	0.7866	30.0311	-11.4038	4.8450	25.9000 
736.717	-1.0503	-0.1963	1.4468	25.7300	-8.6407	5.2679	25.8900 
736.739	-1.1772	0.0068	1.7041	20.6927	-7.2510	5.2954	25.8800 
736.757	0.5361	-0.5942	2.2354	14.8206	-8.2452	6.0095	25.9100 
736.805	-0.2212	-0.1235	1.9302	11.4917	-9.3494	5.8228	25.9200 
736.807	0.0898	-0.0386	1.1167	10.1788	-9.4427	5.8282	25.9400 
736.817	0.1606	-0.0801	1.0840	9.4647	-9.3933	5.8997	25.9400 
736.837	0.1343	-0.0781	1.0410	8.9044	-9.2780	6.0040	25.9300 
736.858	0.1128	-0.0806	1.0591	8.3386	-9.1626	6.0864	25.9400 
736.877	0.1172	-0.0640	1.0347	7.7728	-9.0747	6.1029	25.9500 
736.897	0.1597	-0.0825	1.0171	7.2290	-9.0967	6.1414	25.9400 
736.916	0.1431	-0.1152	1.0288	6.6742	-9.1571	6.2457	25.9400 
736.939	0.1460	-0.0918	1.0107	6.2238	-9.1736	6.3446	25.9300 
736.957	0.1597	-0.0830	0.9902	5.7623	-9.1571	6.5149	25.9400 
736.999	0.1514	-0.0933	0.9941	5.2185	-9.1077	6.7291	25.9500 
737.003	0.1406	-0.1060	0.9956	4.5593	-9.0088	7.0258	25.9300 
737.016	0.1255	-0.1387	1.0278	3.7738	-8.7891	7.3663	25.9200 
737.036	0.1055	-0.1431	1.0205	2.8070	-8.4540	7.6685	25.9300 
737.058	0.1045	-0.1587	1.0215	1.6479	-8.0695	7.9047	25.9300 
737.076	0.1074	-0.1807	1.0142	0.2856	-7.6465	8.0914	25.9300 
737.096	0.1094	-0.2183	1.0215	-1.2030	-7.2015	8.2562	25.9400 
737.116	0.1128	-0.2515	1.0059	-2.6642	-6.7291	8.4265	25.9500 
737.136	0.0894	-0.2515	1.0059	-3.8177	-6.2402	8.5638	25.9600 
737.191	0.0630	-0.2671	1.0093	-4.5593	-5.7239	8.5803	25.9500 
737.194	0.0376	-0.2773	1.0024	-5.0427	-5.2020	8.4375	25.9500 
737.196	0.0415	-0.2681	1.0161	-5.3174	-4.6582	8.1079	25.9500 
737.215	0.0996	-0.2402	1.0176	-5.5536	-4.1309	7.7618	25.9600 
737.235	0.0913	-0.2793	0.9688	-6.1304	-3.7463	7.6300	25.9500 
737.255	0.1953	-0.0913	1.0332	-7.2565	-3.4827	7.9926	25.9500 
737.275	0.0835	-0.0059	1.1509	-9.2560	-3.3838	9.1791	25.9600 
737.295	0.2344	0.0479	1.9321	-14.7272	-3.2080	11.9092	25.9600 
737.315	0.4546	-0.0908	1.8716	-24.8291	-2.2852	15.6995	25.9500 
737.335	0.4346	0.1626	1.3325	-37.7490	0.8899	18.9844	25.9500 
737.391	0.4868	-1.6323	4.0156	-49.1968	7.0313	19.3854	25.9600 
737.396	1.5400	0.4937	2.5225	-50.3668	9.1187	20.9894	25.9300 
737.402	1.2373	0.4233	1.0542	-46.9391	8.3661	22.6978	25.9500 
737.414	0.6685	0.2266	0.6025	-42.6929	6.6852	22.4506	25.9400 
737.433	0.4058	0.1445	0.8975	-38.5785	5.0482	20.8575	25.9400 
737.454	0.1836	0.0732	1.2041	-33.6621	3.3453	19.0173	25.9200 
737.474	0.0586	-0.0327	1.0503	-27.9547	1.5106	17.2760	25.9200 
737.494	-0.1904	-0.2354	1.0864	-22.0880	-0.0934	15.6500	25.9200 
737.513	-0.3950	-0.2700	1.2163	-15.9686	-1.4008	14.3372	25.9300 
737.534	-0.4321	-0.4204	1.4033	-9.9261	-2.6862	13.9032	25.9200 
737.585	-0.2974	-0.5010	1.4341	-4.0814	-4.1034	14.1174	25.9100 
737.589	-0.0923	-0.5928	1.5762	1.5491	-5.6030	14.7107	25.9100 
737.593	-0.0083	-0.6011	1.6606	7.0203	-7.1576	15.2161	25.9100 
737.613	-0.0151	-0.6694	1.7808	12.2333	-8.8055	15.4248	25.8900 
737.633	-0.0093	-0.7964	1.8506	17.1112	-10.6512	15.3809	25.8900 
737.653	0.1460	-1.0073	1.8701	21.6760	-12.6837	15.0677	25.9000 
737.673	0.1616	-1.2676	1.7056	26.1639	-14.6063	14.4360	25.8900 
737.693	-0.3066	-1.8506	1.0039	30.7013	-16.0895	13.0408	25.8800 
737.712	-0.8560	-2.4683	0.4458	34.6783	-17.4298	11.1896	25.8800 
737.733	-0.9258	-3.1948	-0.7764	36.6888	-18.6438	9.2340	25.8700 
737.756	-0.8325	-2.2700	-0.3320	34.5959	-18.9569	9.4427	25.8900 
737.772	-0.2021	0.7383	1.2651	30.7837	-15.6171	10.0690	25.8900 
737.822	-0.4590	0.1895	0.3486	26.6364	-12.6672	10.8435	25.8700 
737.824	-0.9697	0.0283	1.6860	21.8243	-11.0797	10.9589	25.8700 
737.832	1.7925	-2.3149	3.9219	16.1719	-11.5192	11.6675	25.8900 
737.852	-0.3828	-0.0737	2.1714	11.4203	-13.3429	12.0245	25.9100 
737.872	0.1133	-0.1240	1.2920	8.9484	-13.9142	11.9696	25.9200 
737.891	0.1670	-0.0903	1.1011	7.6465	-13.9032	12.0190	25.9100 
737.912	0.1899	-0.1235	1.0649	6.8060	-13.7988	12.2552	25.9200 
737.932	0.0874	-0.0854	1.0845	6.1743	-13.6670	12.4200	25.9200 
737.952	0.1699	-0.0879	1.0107	5.5096	-13.5791	12.5409	25.9200 
737.971	0.1772	-0.1299	1.0483	4.8120	-13.5681	12.7112	25.9100 
738.020	0.1523	-0.1167	1.0176	4.2297	-13.4692	12.8979	25.9200 
738.024	0.1411	-0.1001	1.0103	3.7683	-13.2715	13.0902	25.9200 
738.031	0.1528	-0.1128	0.9907	3.3289	-13.0902	13.2880	25.9100 
738.051	0.1445	-0.1089	0.9873	2.8235	-12.9254	13.5406	25.9200 
738.071	0.1587	-0.1182	0.9819	2.2137	-12.7277	13.8373	25.9200 
738.091	0.1230	-0.1636	1.0288	1.5161	-12.4585	14.1449	25.9200 
738.111	0.1274	-0.1519	1.0137	0.8240	-12.0905	14.3866	25.9000 
738.131	0.1279	-0.1626	1.0083	-0.0439	-11.6620	14.5624	25.9200 
738.151	0.1274	-0.1709	1.0029	-1.1206	-11.2225	14.7382	25.9300 
738.171	0.1191	-0.2397	1.0259	-2.4664	-10.7831	14.9414	25.9100 
738.210	0.1069	-0.2363	1.0093	-3.8782	-10.2997	15.1556	25.9300 
738.213	0.0957	-0.2397	1.0063	-5.0482	-9.7833	15.3040	25.9200 
738.230	0.0806	-0.2681	1.0093	-5.9766	-9.2889	15.3589	25.9200 
738.250	0.0654	-0.2837	1.0293	-6.6577	-8.8110	15.2875	25.9300 
738.270	0.0757	-0.2637	1.0190	-7.2784	-8.3441	15.1172	25.9300 
738.290	0.0913	-0.2715	1.0352	-7.9211	-7.9266	14.9579	25.9300 
738.310	0.1196	-0.2510	1.0840	-8.7286	-7.5861	14.9799	25.9300 
738.330	0.0952	-0.0425	1.1069	-10.2118	-7.3718	15.4688	25.9400 
738.350	0.0635	0.5503	1.6235	-13.0353	-7.2675	16.5234	25.9300 
738.416	0.1221	0.2773	1.9883	-20.9729	-7.1301	18.1494	25.9400 
738.421	0.5430	0.1563	1.9028	-33.7994	-6.9434	20.2258	25.9300 
738.421	0.5337	-0.3306	4.0078	-44.3628	-3.8232	20.1709	25.9100 
738.430	0.7910	0.9463	2.4399	-45.5548	-0.8295	19.8248	25.8900 
738.449	1.0420	0.7783	0.9448	-42.9456	0.6042	20.4785	25.9000 
738.475	0.9932	0.5522	1.0327	-39.5288	1.7578	20.0665	25.8900 
738.489	0.8008	0.4180	1.1675	-35.4639	2.2906	19.0173	25.8900 
738.509	0.4800	0.1392	0.9614	-30.3003	1.6534	18.1384	25.8900 
738.529	0.2891	-0.0332	0.9302	-24.7632	0.2417	17.3914	25.8900 
738.549	-0.0552	-0.2441	1.0967	-19.2316	-1.2469	16.6223	25.8800 
738.570	-0.2764	-0.3525	1.3071	-13.6066	-2.6257	16.0236	25.9000 
738.611	-0.3535	-0.4839	1.4238	-8.0859	-4.0979	15.9467	25.8800 
738.614	-0.3188	-0.5615	1.3696	-2.8125	-5.6799	16.1938	25.8700 
738.628	-0.3657	-0.5957	1.4692	2.1698	-7.1960	16.4685	25.8600 
738.648	-0.3359	-0.6465	1.5527	6.8060	-8.6737	16.8530	25.8600 
738.668	-0.1509	-0.7676	1.5859	11.1182	-10.1459	17.4847	25.8600 
738.688	0.0591	-0.8926	1.6377	15.0732	-11.7389	18.3911	25.8600 
738.708	0.3828	-1.0742	1.6899	18.9240	-13.5736	19.1876	25.8700 
738.728	0.3979	-1.2056	1.4819	22.8735	-15.3204	19.3634	25.8600 
738.748	0.1382	-1.4844	1.0376	26.7737	-16.7816	18.4570	25.8600 
738.805	-0.1558	-1.7666	0.7939	30.3937	-17.8857	16.7432	25.8400 
738.810	-0.7822	-2.2471	0.4214	33.0908	-18.9734	14.6338	25.8500 
738.815	-0.8569	-2.2832	-0.4473	34.1949	-20.2368	13.0902	25.8600 
738.827	-0.4863	-0.9575	0.5171	31.4044	-19.3030	13.3099	25.8500 
738.847	-0.1987	0.8213	0.9609	27.9053	-16.3641	13.6230	25.8400 
738.867	-1.1152	-0.1792	1.7725	23.1592	-13.9581	14.0900	25.8200 
738.887	0.1211	-0.2861	2.7188	17.9681	-13.2001	14.5679	25.8300 
738.907	-0.2964	-0.1040	1.8408	13.3704	-13.9801	15.2985	25.8500 
738.927	0.0703	-0.0615	1.4629	10.2832	-15.1282	14.8755	25.8700 
738.947	0.1016	-0.0483	1.1938	8.5748	-15.6775	14.6503	25.8700 
738.967	0.1138	-0.0801	1.1348	7.5586	-15.8038	14.6118	25.8900 
738.987	0.1313	-0.0605	1.0493	6.9049	-15.8533	14.6228	25.9000 
739.007	0.1348	-0.0537	1.0259	6.3336	-16.0016	14.6008	25.8700 
739.043	0.1665	-0.0464	1.0063	5.8228	-16.2268	14.5624	25.8800 
739.046	0.1855	-0.0527	0.9922	5.2844	-16.4740	14.5844	25.8800 
739.066	0.1953	-0.0903	0.9976	4.7241	-16.7267	14.6887	25.8800 
739.086	0.1904	-0.0718	0.9868	4.2188	-16.9409	14.8260	25.8900 
739.106	0.1938	-0.1035	1.0054	3.6255	-17.0508	15.0128	25.8800 
739.126	0.1763	-0.0981	1.0044	3.0872	-16.9794	15.2161	25.8800 
739.146	0.1904	-0.0962	0.9937	2.5378	-16.7926	15.4523	25.8800 
739.166	0.1748	-0.1016	1.0078	1.9171	-16.4905	15.7104	25.8900 
739.185	0.1426	-0.1201	1.0166	1.1371	-16.1005	15.9467	25.8800 
739.232	0.1484	-0.1533	1.0264	0.2032	-15.7104	16.1774	25.8800 
739.234	0.1558	-0.1577	0.9927	-0.8514	-15.2710	16.4136	25.8800 
739.245	0.1563	-0.1611	0.9912	-1.9501	-14.7931	16.6388	25.8900 
739.266	0.1450	-0.1797	1.0029	-2.9828	-14.2548	16.8365	25.8900 
739.285	0.1387	-0.2622	1.0396	-4.0649	-13.6780	16.9904	25.8800 
739.304	0.1138	-0.2354	1.0195	-4.8834	-13.0573	16.9794	25.8900 
739.326	0.1138	-0.2383	1.0269	-5.3723	-12.5354	16.8530	25.9000 
739.345	0.1226	-0.2222	1.0659	-5.8887	-12.0850	16.6772	25.9000 
739.364	0.1211	-0.2041	1.0859	-6.7017	-11.6895	16.5564	25.9000 
739.384	0.1411	-0.1270	1.1333	-8.2288	-11.3654	16.6168	25.8800 
739.423	0.1255	-0.0137	1.1040	-10.7776	-11.1951	17.0013	25.9000 
739.426	0.0337	0.4014	1.5708	-15.1886	-11.0358	17.8638	25.9000 
739.444	0.0449	0.2866	1.9878	-23.1482	-10.9094	19.2316	25.9100 
739.464	0.9312	0.2012	1.7515	-34.8102	-12.4530	22.1814	25.9000 
739.484	1.0322	-0.6836	4.6655	-44.2914	-12.0300	24.3182	25.8900 
739.504	0.9741	1.1128	1.9277	-44.9341	-9.6075	23.9996	25.8800 
739.524	0.8032	0.9844	1.0474	-42.3578	-7.8442	23.3514	25.8800 
739.544	0.6284	0.7930	1.1255	-38.5400	-5.9711	22.0496	25.8700 
739.564	0.5913	0.4702	1.1328	-34.2719	-4.7021	21.1597	25.8900 
739.584	0.5840	0.2007	1.1021	-29.4269	-4.3121	20.7916	25.8700 
739.603	0.4277	-0.0596	0.9941	-23.9667	-4.6362	20.5664	25.8700 
739.623	0.2588	-0.2119	1.0796	-18.5504	-5.5151	20.3082	25.8700 
739.662	0.0107	-0.3730	1.2837	-13.2166	-6.7017	19.9786	25.8600 
739.665	-0.0996	-0.4487	1.3750	-7.7783	-8.0090	19.6820	25.8600 
739.683	-0.0698	-0.5088	1.3491	-2.5433	-9.3439	19.5117	25.8500 
739.703	-0.0635	-0.5483	1.4497	2.2192	-10.4919	19.3634	25.8600 
739.723	-0.0132	-0.6304	1.6519	6.6962	-11.6125	19.3085	25.8400 
739.749	0.0405	-0.6748	1.7344	11.0907	-12.9089	19.3909	25.8500 
739.762	0.1523	-0.9106	1.7690	15.3699	-14.4360	19.7040	25.8300 
739.783	0.2417	-1.0781	1.5615	19.6875	-16.4081	20.3027	25.8400 
739.803	0.2129	-1.3530	1.3447	23.9117	-18.4955	20.3412	25.8400 
739.847	0.0742	-1.6030	1.1279	27.7515	-20.3302	19.5831	25.8300 
739.849	-0.3521	-2.1011	0.6714	31.0199	-21.8683	18.3197	25.8200 
739.862	-0.6255	-2.6646	0.2368	33.4808	-23.5712	16.9189	25.8300 
739.882	-0.6187	-2.7651	-0.5474	32.8821	-24.4775	16.5125	25.8400 
739.902	-0.5615	-0.8467	0.3306	29.5807	-22.0056	16.7981	25.8200 
739.922	-0.9526	0.1763	1.1895	24.7797	-18.7207	16.7267	25.8200 
739.942	-1.3545	-0.2324	1.6514	19.6710	-16.7816	16.5948	25.8200 
739.962	1.8145	-2.2153	3.4268	13.6340	-17.1771	17.1606	25.8400 
739.982	-0.5469	-0.2598	2.1328	8.4265	-18.1000	17.5122	25.8500 
740.040	0.0786	-0.1445	1.3062	6.6852	-18.3582	17.4298	25.8700 
740.042	0.2158	-0.1104	1.1001	6.0315	-18.1329	17.3474	25.8700 
740.042	0.1387	-0.1167	1.0703	5.4492	-17.7869	17.3254	25.8700 
740.061	0.1450	-0.0991	1.0742	4.8889	-17.5067	17.3309	25.8600 
740.081	0.1123	-0.0947	1.0415	4.3506	-17.2375	17.2705	25.8600 
740.101	0.1519	-0.0830	1.0122	3.8782	-17.1332	17.1936	25.8600 
740.121	0.1558	-0.1387	1.0371	3.3618	-17.1167	17.1936	25.8600 
740.141	0.1499	-0.1182	1.0117	2.9169	-17.0618	17.2266	25.8800 
740.161	0.1636	-0.0850	0.9751	2.5378	-16.9574	17.3254	25.8700 
740.184	0.1489	-0.1060	0.9995	2.0819	-16.7651	17.4792	25.8800 
740.234	0.1470	-0.1245	0.9980	1.5271	-16.4905	17.7155	25.8800 
740.236	0.0972	-0.1426	1.0425	0.8569	-16.1115	17.9517	25.8800 
740.240	0.1094	-0.1431	1.0200	0.0604	-15.6390	18.1329	25.8700 
740.261	0.1006	-0.1519	1.0210	-0.8679	-15.1172	18.2043	25.8800 
740.279	0.1074	-0.1816	1.0132	-2.0435	-14.5844	18.2263	25.8800 
740.300	0.1069	-0.1914	1.0112	-3.4058	-14.0625	18.2428	25.8600 
740.320	0.1040	-0.2427	1.0088	-4.8175	-13.5187	18.2428	25.8700 
740.340	0.0981	-0.2329	1.0103	-5.9601	-12.9419	18.2208	25.8900 
740.360	0.0674	-0.2759	1.0186	-6.7731	-12.3651	18.1165	25.8700 
740.379	0.0518	-0.2837	1.0156	-7.2620	-11.7883	17.8583	25.8900 
740.434	0.0571	-0.2637	1.0273	-7.4817	-11.1841	17.4243	25.8800 
740.439	0.0840	-0.2466	1.0059	-7.6685	-10.5634	16.9244	25.8900 
740.441	0.1494	-0.2153	1.0503	-8.1793	-10.0470	16.6278	25.9000 
740.459	0.1997	-0.0732	1.0400	-9.3274	-9.6405	16.7157	25.9000 
740.479	0.0708	0.3965	1.4473	-11.6620	-9.4098	17.6715	25.9000 
740.499	0.1479	0.1772	2.1196	-17.5616	-9.0802	19.6106	25.9000 
740.519	0.7227	0.1543	2.0127	-29.3719	-7.7124	22.0276	25.8900 
740.539	0.6646	0.1655	2.3301	-43.1927	-4.0265	23.0438	25.8900 
740.559	0.8076	0.6831	3.9678	-50.6250	0.7910	21.0992	25.8800 
740.578	1.2446	0.6909	1.7183	-50.2734	2.0764	21.7419	25.8700 
740.598	0.9575	0.3877	0.5859	-47.0270	1.4282	22.5879	25.8800 
740.621	0.6729	0.3311	0.7646	-43.4454	0.3241	22.2144	25.8700 
740.638	0.2695	0.2349	1.1860	-39.3420	-1.0052	21.1212	25.8700 
740.675	0.0767	0.1304	1.2393	-34.1785	-2.5433	20.0226	25.8700 
740.679	-0.0371	-0.0410	1.1606	-28.2239	-4.2023	19.1217	25.8700 
740.699	-0.2217	-0.2759	1.0928	-21.8463	-5.6470	18.2922	25.8600 
740.718	-0.4175	-0.3477	1.0444	-15.1941	-6.8665	17.6276	25.8500 
740.737	-0.5400	-0.4453	1.2671	-9.0637	-8.1134	17.5507	25.8400 
740.758	-0.3467	-0.5186	1.5645	-3.5486	-9.3439	18.2043	25.8400 
740.777	-0.0322	-0.5693	1.6362	1.8732	-10.5194	19.1492	25.8400 
740.799	0.0225	-0.5815	1.6436	7.3114	-11.8652	19.7864	25.8400 
740.817	0.0181	-0.6865	1.9336	12.5848	-13.3978	19.9072	25.8400 
740.871	0.0479	-0.8452	2.0601	17.6660	-15.0183	19.6985	25.8400 
740.873	0.2954	-1.1895	1.8169	22.6593	-16.9080	19.5337	25.8100 
740.878	0.4502	-1.4673	1.3423	27.5702	-18.5944	18.6493	25.8100 
740.899	-0.3730	-2.3276	0.7358	31.9757	-19.6216	16.7432	25.8100 
740.917	-1.1201	-3.2124	-0.1924	35.1123	-20.8081	14.1998	25.8100 
740.937	-1.1543	-3.7437	-1.1792	34.5081	-21.7914	12.9749	25.8000 
740.957	-1.1709	-0.4390	1.1104	30.4541	-18.0835	13.1891	25.8000 
740.977	-0.4565	-0.1846	1.3569	25.4498	-15.4688	13.9142	25.7900 
740.999	-0.5669	-0.1504	1.9395	20.7751	-14.2218	14.0680	25.8000 
741.016	1.2529	-1.4204	2.3330	15.7983	-14.8315	14.9030	25.8100 
741.067	-0.5322	-0.1104	2.0444	11.5302	-16.0950	14.8425	25.8400 
741.096	-0.0967	-0.1055	1.3916	8.6627	-17.0068	14.7766	25.8600 
741.102	0.1670	-0.1543	1.1860	7.0367	-17.2101	14.8535	25.8500 
741.102	0.1504	-0.1211	1.0820	6.0535	-17.2430	15.0128	25.8600 
741.116	0.0874	-0.1060	1.1064	5.3119	-17.2870	15.1117	25.8500 
741.136	0.1768	-0.1128	1.0469	4.7186	-17.3474	15.1941	25.8400 
741.156	0.1797	-0.1069	1.0239	4.1748	-17.3749	15.3589	25.8400 
741.175	0.1602	-0.0996	1.0122	3.6969	-17.2980	15.5511	25.8500 
741.196	0.1475	-0.0947	1.0093	3.2574	-17.1222	15.7544	25.8500 
741.215	0.1450	-0.1089	0.9937	2.8015	-16.9025	15.9576	25.8600 
741.258	0.1587	-0.1060	0.9863	2.3566	-16.6663	16.1829	25.8400 
741.260	0.1577	-0.1270	1.0015	1.8182	-16.3806	16.4410	25.8500 
741.275	0.1611	-0.1553	1.0098	1.1865	-16.0181	16.7322	25.8600 
741.296	0.1230	-0.1304	0.9912	0.4779	-15.4852	17.0068	25.8600 
741.315	0.1113	-0.1616	1.0225	-0.4724	-14.9304	17.2430	25.8600 
741.335	0.1055	-0.1763	1.0093	-1.6534	-14.3976	17.4573	25.8400 
741.356	0.1108	-0.1792	1.0020	-2.8619	-13.9087	17.6331	25.8500 
741.374	0.1074	-0.2427	1.0190	-4.0375	-13.3868	17.7704	25.8600 
741.394	0.0991	-0.2412	1.0181	-4.9823	-12.8595	17.8528	25.8700 
741.455	0.0781	-0.2441	1.0156	-5.6689	-12.3871	17.8802	25.8700 
741.464	0.0649	-0.2642	1.0225	-6.1798	-11.9312	17.7869	25.8800 
741.464	0.0669	-0.2612	1.0356	-6.6138	-11.4532	17.5946	25.8700 
741.474	0.0811	-0.2124	1.0503	-6.9928	-10.9314	17.3474	25.8800 
741.495	0.1196	-0.2217	1.0845	-7.7509	-10.4260	17.2101	25.8700 
741.514	0.1670	0.0459	1.0723	-9.0143	-10.0250	17.4353	25.8800 
741.534	0.0439	0.4243	1.5352	-11.5411	-9.7778	18.4406	25.8900 
741.554	0.0225	0.3413	2.0649	-18.1000	-9.4537	20.2368	25.8900 
741.574	0.7104	0.3037	2.1167	-30.8331	-9.0582	22.7087	25.8700 
741.594	0.5933	0.2310	3.4131	-44.9396	-7.1466	24.6533	25.8700 
741.645	0.9092	1.0391	3.5142	-50.5701	-3.3453	23.9117	25.8600 
741.650	1.0942	0.8062	1.2744	-49.0045	-1.8182	24.5929	25.8500 
741.654	0.9824	0.5186	0.6826	-45.1758	-1.3184	24.5764	25.8500 
741.673	0.8247	0.4453	0.9229	-40.9186	-1.2524	23.6975	25.8400 
741.693	0.4395	0.2432	1.1714	-36.2054	-1.9830	22.5110	25.8500 
741.713	0.2144	0.0649	1.2446	-30.7123	-3.2135	21.3849	25.8500 
741.733	-0.0493	-0.2129	1.1479	-24.4775	-4.5428	20.3906	25.8400 
741.753	-0.2451	-0.3506	1.0776	-18.0231	-5.6964	19.5831	25.8400 
741.773	-0.3828	-0.5200	1.2720	-11.6016	-6.8665	19.3304	25.8400 
741.793	-0.3018	-0.6025	1.5049	-5.6030	-8.2343	19.6381	25.8400 
741.815	-0.1689	-0.7178	1.6694	-0.1978	-9.7723	20.3302	25.8400 
741.832	-0.0747	-0.7822	1.6704	5.1416	-11.4093	20.8740	25.8300 
741.889	-0.1021	-0.8237	1.7554	10.3107	-13.0243	21.0223	25.8200 
741.891	-0.0791	-1.0615	1.9004	15.2216	-14.5294	20.9729	25.8000 
741.894	0.0693	-1.2930	1.8823	20.0006	-16.2762	21.3684	25.8000 
741.912	0.1177	-1.6729	1.4810	24.7797	-18.1000	21.4343	25.8100 
741.932	-0.0249	-2.0376	0.9556	29.2786	-19.7479	20.4840	25.8000 
741.951	-0.7148	-2.8101	0.1758	32.7722	-21.0388	18.7866	25.8100 
741.972	-0.9092	-3.1055	-0.6660	33.8544	-22.3187	17.3529	25.8100 
741.991	-0.4946	-1.3027	0.4805	30.7233	-21.8188	17.7924	25.8000 
742.012	-0.5054	0.7344	1.5732	26.8835	-18.5010	17.6166	25.7800 
742.032	-1.3687	-0.2271	1.8242	22.2308	-15.9631	17.4463	25.7600 
742.081	-0.3306	-0.0801	2.0874	17.4738	-15.5292	17.5177	25.7800 
742.083	0.0439	-0.2500	1.6353	12.4146	-16.6003	18.3307	25.8000 
742.091	-0.0581	-0.0298	1.5742	9.5197	-17.8473	17.8363	25.8400 
742.111	0.1045	-0.0718	1.1499	7.8882	-18.1055	17.7374	25.8300 
742.131	0.1050	-0.0801	1.1177	6.8060	-18.1055	17.7649	25.8300 
742.151	0.0957	-0.0791	1.0566	6.0315	-18.0231	17.7704	25.8400 
742.170	0.0786	-0.0771	1.0728	5.4767	-18.0176	17.6880	25.8400 
742.191	0.1714	-0.0781	1.0273	5.0592	-18.0670	17.5891	25.8400 
742.211	0.1914	-0.1113	1.0415	4.5758	-18.1274	17.5946	25.8500 
742.230	0.1533	-0.0918	1.0146	4.0540	-18.0286	17.6660	25.8500 
742.269	0.1523	-0.0825	1.0024	3.5596	-17.8748	17.7539	25.8400 
742.271	0.1411	-0.1089	1.0093	2.9498	-17.6605	17.8967	25.8400 
742.290	0.1289	-0.1084	1.0117	2.2852	-17.3639	18.0670	25.8300 
742.310	0.1401	-0.1494	1.0142	1.5271	-16.9629	18.2758	25.8400 
742.330	0.1260	-0.1348	1.0093	0.6592	-16.4410	18.4625	25.8400 
742.350	0.1177	-0.1563	1.0103	-0.4724	-15.8478	18.6108	25.8400 
742.370	0.1055	-0.1670	1.0117	-1.7853	-15.2380	18.7482	25.8400 
742.390	0.0962	-0.2344	1.0249	-3.2465	-14.6558	18.8416	25.8500 
742.409	0.0967	-0.2407	1.0132	-4.5593	-14.0900	18.8855	25.8500 
742.459	0.0771	-0.2368	1.0103	-5.4822	-13.5022	18.8525	25.8500 
742.463	0.0659	-0.2549	1.0195	-6.1194	-12.9309	18.7042	25.8400 
742.469	0.0425	-0.2603	1.0269	-6.4984	-12.3761	18.4076	25.8500 
742.489	0.0542	-0.2354	1.0337	-6.7456	-11.7773	17.9626	25.8600 
742.509	0.0825	-0.2168	1.0654	-7.1027	-11.1566	17.4957	25.8600 
742.529	0.1641	-0.2363	1.0859	-8.0255	-10.6293	17.2815	25.8700 
742.549	0.1689	0.0483	1.1313	-9.6680	-10.3107	17.6605	25.8600 
742.569	0.1411	0.5259	1.8247	-13.6176	-10.2283	19.0009	25.8800 
742.589	0.4604	0.1509	2.0913	-23.3624	-9.7943	21.1047	25.8700 
742.609	0.6572	0.2271	1.8677	-37.3206	-8.3112	23.3350	25.8600 
742.628	0.4146	-0.0791	5.1836	-48.1091	-3.6859	22.7252	25.8400 
742.648	1.0947	0.9482	2.9321	-49.5978	-0.9833	23.1042	25.8500 
742.698	1.2451	0.6304	0.7017	-46.7029	-0.4010	24.6423	25.8300 
742.700	1.1079	0.4453	0.7739	-42.7478	-0.6702	24.9884	25.8200 
742.708	0.6494	0.3086	1.2666	-38.4357	-1.6864	24.3347	25.8400 
742.728	0.2705	0.1567	1.3325	-33.3765	-3.3124	23.2690	25.8300 
742.748	-0.0996	-0.0986	1.0430	-27.2076	-5.2240	22.2034	25.8200 
742.768	-0.2573	-0.2314	0.9819	-20.9344	-7.0203	21.2256	25.8200 
742.788	-0.4448	-0.3521	1.3032	-14.6613	-8.5034	20.4950	25.8100 
742.808	-0.4849	-0.4116	1.5693	-8.3496	-9.7723	20.1654	25.8100 
742.830	-0.1826	-0.5728	1.6548	-2.4554	-11.1182	20.4730	25.8100 
742.848	-0.0181	-0.6821	1.6934	3.1805	-12.5519	20.8905	25.8100 
742.885	-0.0049	-0.8398	1.7705	8.6462	-14.1449	20.9125	25.8000 
742.887	-0.0127	-1.0010	1.9478	13.9801	-15.7983	20.4785	25.7900 
742.907	0.1216	-1.3926	2.0762	19.1107	-17.5726	19.9841	25.7900 
742.927	-0.0073	-1.6699	1.7466	24.4611	-19.6545	19.6545	25.7800 
742.947	-0.3535	-2.3584	0.8135	29.8059	-21.6925	18.2703	25.7700 
742.968	-0.9673	-2.9937	0.2129	34.2334	-23.1262	16.3202	25.7800 
742.987	-1.0381	-3.3101	-0.7593	35.7111	-24.4006	15.0787	25.7800 
743.007	-0.5615	-1.5181	0.1064	32.9645	-24.4226	15.6006	25.7800 
743.028	-0.1079	0.8198	1.5532	28.9655	-21.1871	16.1060	25.7700 
743.076	-1.0947	0.0117	1.1929	24.4171	-18.1219	16.6388	25.7700 
743.078	-1.1245	-0.0835	1.8374	19.1656	-16.6937	16.8475	25.7700 
743.087	0.8154	-1.0981	2.4780	13.1561	-17.6166	17.7100	25.8100 
743.106	-0.3945	-0.0854	2.2002	9.3658	-19.1437	17.2540	25.8200 
743.126	-0.0244	-0.1045	1.3081	7.2180	-19.4019	17.1057	25.8200 
743.146	0.1450	-0.1108	1.1431	6.0974	-19.5502	17.0837	25.8000 
743.166	0.1582	-0.0889	1.0220	5.3064	-19.5831	17.1277	25.8200 
743.186	0.1138	-0.0977	1.0918	4.5868	-19.6326	17.1387	25.8200 
743.206	0.1694	-0.1177	1.0679	3.9056	-19.7040	17.1442	25.8200 
743.226	0.1704	-0.1128	1.0288	3.3069	-19.7424	17.1771	25.8200 
743.245	0.1577	-0.1216	1.0288	2.7576	-19.6930	17.2430	25.8100 
743.265	0.1479	-0.1260	1.0200	2.2742	-19.6271	17.3199	25.8200 
743.320	0.1768	-0.1284	0.9971	1.8182	-19.5502	17.4023	25.8300 
743.323	0.1748	-0.1411	1.0000	1.3788	-19.4348	17.5232	25.8200 
743.325	0.1865	-0.1440	0.9863	0.9833	-19.2535	17.6440	25.8300 
743.345	0.1807	-0.1421	0.9990	0.6097	-18.9734	17.7484	25.8400 
743.365	0.1665	-0.1221	0.9761	0.0934	-18.5999	17.8583	25.8400 
743.385	0.1748	-0.1372	0.9756	-0.6262	-18.1219	18.0066	25.8300 
743.410	0.1338	-0.1709	1.0063	-1.6150	-17.4738	18.1934	25.8200 
743.425	0.1187	-0.1865	1.0088	-2.7356	-16.8201	18.3582	25.8200 
743.444	0.1172	-0.1987	0.9995	-3.9716	-16.1664	18.4955	25.8200 
743.465	0.1050	-0.2690	1.0273	-5.1910	-15.5072	18.5779	25.8200 
743.505	0.0811	-0.2578	1.0161	-5.9821	-14.8370	18.5010	25.8400 
743.508	0.0806	-0.2632	1.0308	-6.3556	-14.2273	18.2867	25.8300 
743.524	0.1021	-0.2441	1.0508	-6.5094	-13.6835	17.9462	25.8400 
743.544	0.0977	-0.2393	1.0728	-6.8390	-13.1451	17.6440	25.8300 
743.564	0.1284	-0.1577	1.0874	-7.6190	-12.5903	17.5397	25.8400 
743.584	0.1357	-0.1479	0.9858	-8.8715	-12.1344	17.7429	25.8400 
743.604	0.0703	0.3599	1.3696	-11.1237	-11.8872	18.6218	25.8400 
743.624	0.1133	0.5273	2.1001	-17.8638	-11.5906	20.3632	25.8500 
743.645	0.6499	0.1401	2.0205	-30.4156	-11.3544	22.5769	25.8300 
743.694	0.6211	0.3418	2.0278	-44.8517	-9.6680	24.0161	25.8400 
743.698	0.8735	0.7417	4.5591	-53.7506	-5.3833	21.6156	25.8300 
743.703	0.9663	0.8159	2.3027	-53.3441	-3.3563	20.8026	25.8400 
743.723	0.8828	0.4697	0.5991	-49.4879	-2.9993	21.0278	25.8200 
743.744	0.8271	0.3589	0.7227	-44.9011	-3.1641	20.5829	25.8200 
743.766	0.6333	0.2192	1.1538	-40.0397	-3.5211	19.4348	25.8200 
743.783	0.4033	0.0938	1.2256	-34.1895	-4.2188	18.1110	25.8000 
743.803	0.1860	-0.1421	1.0674	-27.5647	-5.3174	17.0013	25.8100 
743.823	0.0259	-0.3057	1.1309	-20.8411	-6.6083	16.1444	25.8000 
743.843	-0.1997	-0.5044	1.4038	-14.0295	-7.9486	15.5566	25.8000 
743.885	-0.3022	-0.6089	1.5498	-7.2729	-9.3439	15.3094	25.8000 
743.888	-0.0811	-0.8525	1.6445	-1.2689	-11.0138	15.6116	25.8000 
743.902	0.0649	-0.9277	1.7529	4.3286	-12.8046	15.9906	25.7800 
743.922	-0.1353	-1.0464	2.0620	9.8602	-14.4031	15.7764	25.7700 
743.942	-0.3154	-1.2202	2.0215	15.4962	-15.7324	15.0623	25.7800 
743.962	-0.1099	-1.6001	1.6499	20.9235	-17.4353	14.7656	25.7800 
743.982	0.0093	-1.8921	1.3408	26.1035	-19.6765	14.9854	25.7600 
744.002	-0.2046	-2.5552	0.5293	30.4651	-21.5112	14.2877	25.7600 
744.022	-0.7441	-3.2188	0.0591	33.6896	-23.0548	12.8705	25.7700 
744.042	-0.9004	-3.3340	-1.0220	33.5303	-23.9941	11.9092	25.7500 
744.062	-0.4238	0.0532	1.1885	29.8334	-22.7417	12.4640	25.7500 
744.081	-0.4937	0.0498	0.8013	25.2521	-19.5502	13.3649	25.7300 
744.121	-1.0137	-0.2827	1.9521	19.9072	-17.0453	14.0845	25.7400 
744.123	0.9565	-1.3755	2.6890	14.3317	-17.0782	14.9579	25.7600 
744.141	-0.4629	-0.1177	2.1958	9.9756	-18.5614	15.1227	25.8000 
744.161	0.2124	-0.1289	1.2925	7.9596	-19.3195	15.0842	25.8100 
744.181	0.1616	-0.0889	1.1025	6.8665	-19.4843	15.0897	25.8100 
744.201	0.1704	-0.0791	1.0742	6.0919	-19.5007	15.1996	25.8100 
744.221	0.1294	-0.0728	1.0684	5.4108	-19.4678	15.3589	25.8100 
744.241	0.1128	-0.0767	1.0503	4.7955	-19.3854	15.4688	25.8000 
744.261	0.1553	-0.0786	1.0264	4.2682	-19.3744	15.5566	25.8000 
744.310	0.1763	-0.0728	0.9863	3.7463	-19.4019	15.6775	25.8000 
744.312	0.1738	-0.0835	0.9858	3.2135	-19.2865	15.8917	25.7900 
744.320	0.1592	-0.0879	1.0039	2.6642	-19.0283	16.1499	25.7900 
744.342	0.1470	-0.0903	0.9751	2.0435	-18.7207	16.4850	25.8100 
744.360	0.1357	-0.1128	1.0142	1.3623	-18.3197	16.8420	25.8100 
744.380	0.1138	-0.1533	1.0298	0.6262	-17.8912	17.1552	25.8200 
744.403	0.1147	-0.1563	1.0337	-0.1868	-17.3639	17.3914	25.8100 
744.420	0.1206	-0.1729	1.0317	-1.2140	-16.7761	17.5781	25.8100 
744.440	0.1196	-0.1753	1.0151	-2.4005	-16.2323	17.7429	25.8100 
744.464	0.1157	-0.1807	0.9946	-3.6749	-15.7159	17.9077	25.8000 
744.507	0.1050	-0.2368	1.0156	-4.8944	-15.1611	18.0670	25.8000 
744.510	0.0864	-0.2241	1.0132	-5.7953	-14.5624	18.1769	25.8100 
744.519	0.0698	-0.2510	1.0200	-6.5149	-14.0021	18.1934	25.8200 
744.539	0.0332	-0.2642	1.0269	-6.9763	-13.4528	18.0121	25.8100 
744.559	0.0601	-0.2529	1.0405	-7.1906	-12.8760	17.6935	25.7900 
744.579	0.0913	-0.1738	1.0566	-7.3993	-12.3047	17.3529	25.8100 
744.599	0.1567	-0.1797	1.0679	-8.1409	-11.8323	17.2485	25.8000 
744.618	0.1475	-0.0073	1.1182	-9.5087	-11.6180	17.7759	25.8300 
744.638	0.0894	0.5674	1.7437	-13.3374	-11.4807	19.1876	25.8400 
744.658	0.4893	0.1250	2.1045	-23.7634	-10.9589	21.4728	25.8200 
744.697	0.6934	0.2422	1.7979	-37.9578	-9.5471	23.7854	25.8100 
744.699	0.5464	-0.7827	5.0195	-49.8175	-4.5044	22.5439	25.8000 
744.719	0.9634	0.8906	3.4126	-52.3224	-1.3074	21.7419	25.7900 
744.738	1.0425	0.6201	0.7109	-48.9880	-0.7910	22.9504	25.8100 
744.758	0.9634	0.4214	0.5576	-44.7803	-1.1261	23.4283	25.7900 
744.778	0.7183	0.2817	1.0479	-40.5505	-1.8018	22.7911	25.7900 
744.798	0.4624	0.1821	1.2559	-35.5682	-2.9333	21.6925	25.7900 
744.818	0.1792	-0.0278	1.0864	-29.5313	-4.5483	20.5554	25.7900 
744.838	0.0068	-0.2007	1.0796	-23.1757	-6.2347	19.4458	25.7900 
744.860	-0.2769	-0.4155	1.3657	-16.6003	-7.6794	18.4406	25.7900 
744.878	-0.3848	-0.4956	1.4321	-9.9701	-9.0033	17.9077	25.7800 
744.898	-0.1719	-0.6558	1.6045	-3.8672	-10.4974	18.0066	25.7800 
744.935	0.0332	-0.7363	1.7593	1.7743	-12.0685	18.4241	25.7600 
744.937	-0.0146	-0.8325	1.8804	7.2949	-13.6560	18.5559	25.7700 
744.957	-0.1377	-0.9878	1.9204	12.7441	-15.2765	18.2867	25.7500 
744.977	-0.0093	-1.3335	1.9316	17.9407	-16.9684	18.1384	25.7300 
744.997	0.0200	-1.6069	1.7642	22.9559	-18.7152	18.0725	25.7200 
745.017	-0.2041	-2.2524	0.9360	27.6910	-20.3851	17.4078	25.7200 
745.037	-0.8213	-2.8418	0.2832	31.6022	-21.7859	16.1444	25.7300 
745.057	-0.8389	-2.4746	-1.1255	33.6511	-23.5931	15.0018	25.7400 
745.078	-0.6763	-2.4287	-0.4761	31.8658	-24.4446	15.3918	25.7300 
745.120	-0.2036	0.7632	1.4600	27.4384	-21.8518	17.2760	25.7200 
745.123	-0.1445	0.0723	0.3550	22.9449	-18.9734	18.3252	25.7200 
745.136	-0.7852	-0.0728	2.1040	17.6331	-17.4847	18.5175	25.7200 
745.156	1.2983	-1.7236	3.0073	11.7334	-17.9681	19.4183	25.7500 
745.176	0.0625	-0.0928	1.5049	7.7289	-19.4897	19.6271	25.7800 
745.195	-0.0620	-0.0615	1.2593	5.9381	-19.9237	19.8248	25.7800 
745.216	0.0869	-0.0659	1.1123	5.1636	-19.8523	20.0555	25.7700 
745.235	0.1387	-0.0659	1.0215	4.5538	-19.6436	20.3027	25.7900 
745.256	0.1108	-0.0625	1.0435	4.0210	-19.4678	20.5389	25.7800 
745.308	0.1299	-0.0630	1.0215	3.4772	-19.2645	20.7147	25.7700 
745.310	0.1509	-0.0781	1.0142	2.9443	-19.1876	20.9125	25.7800 
745.316	0.1582	-0.1021	1.0093	2.4115	-19.1327	21.1597	25.7900 
745.336	0.1421	-0.0923	1.0063	1.8732	-18.9899	21.4453	25.7900 
745.355	0.1353	-0.0889	1.0161	1.4063	-18.7701	21.7310	25.7900 
745.375	0.1328	-0.1064	1.0078	0.9229	-18.5449	22.0605	25.8000 
745.395	0.1201	-0.1021	1.0059	0.3571	-18.2593	22.4561	25.7900 
745.416	0.1167	-0.1333	1.0225	-0.3351	-17.8748	22.8900	25.7800 
745.435	0.1069	-0.1294	1.0259	-1.1316	-17.3804	23.2855	25.7900 
745.454	0.1089	-0.1382	1.0210	-2.1863	-16.8256	23.6371	25.8000 
745.477	0.0962	-0.1719	1.0181	-3.5760	-16.2433	23.9941	25.7800 
745.494	0.0854	-0.2104	1.0234	-5.1251	-15.6500	24.3292	25.7800 
745.549	0.0796	-0.2363	1.0181	-6.4709	-15.0128	24.6039	25.7800 
745.551	0.0684	-0.2300	1.0166	-7.4377	-14.3701	24.7687	25.7900 
745.555	0.0557	-0.2637	1.0220	-8.1299	-13.7878	24.8071	25.8100 
745.574	0.0571	-0.2646	1.0391	-8.4979	-13.2056	24.6973	25.7900 
745.596	0.0845	-0.2451	0.9971	-8.7616	-12.6123	24.5215	25.7900 
745.614	0.1040	-0.1855	1.0576	-9.1461	-12.1564	24.4775	25.8100 
745.634	0.2100	-0.0615	1.0396	-10.3601	-11.7828	24.8346	25.7900 
745.654	0.1567	0.0186	1.1689	-12.6837	-11.4917	25.9167	25.8100 
745.677	0.2153	0.0996	2.1221	-18.9569	-10.8655	28.4656	25.8100 
745.694	0.6182	0.1006	2.1187	-29.9652	-9.1846	31.6077	25.8100 
745.745	0.6899	0.1758	2.7417	-44.0936	-4.1693	33.1952	25.8000 
745.749	1.1592	0.2539	5.1089	-52.1411	1.2305	31.9043	25.7800 
745.753	1.5659	0.7471	1.3018	-50.5975	1.2909	33.3325	25.7800 
745.773	1.0552	0.5649	0.5068	-47.0105	-0.4285	33.9423	25.7900 
745.793	0.3848	0.4346	0.9507	-43.2697	-2.3676	32.8876	25.7800 
745.813	0.1172	0.3140	1.3208	-38.9740	-4.2572	31.6351	25.7800 
745.833	-0.0913	0.0654	1.2822	-33.3765	-6.2512	30.7672	25.7700 
745.852	-0.2119	-0.1089	1.1826	-27.0978	-8.1244	30.0476	25.7700 
745.874	-0.3940	-0.2915	1.2339	-20.3632	-9.7339	29.4818	25.7700 
745.893	-0.4478	-0.3960	1.2339	-13.8318	-11.1676	29.1467	25.7500 
745.933	-0.3354	-0.4990	1.4385	-7.8278	-12.5079	29.2456	25.7500 
745.936	-0.1865	-0.5522	1.7148	-2.1259	-13.8098	29.4983	25.7700 
745.952	-0.0649	-0.6567	1.9927	3.5596	-15.0952	29.5862	25.7500 
745.972	-0.0776	-0.7949	2.0093	9.3933	-16.3696	29.2950	25.7300 
745.992	-0.0576	-1.1289	1.9956	15.2051	-17.6660	28.8281	25.7400 
746.012	-0.0879	-1.4185	1.8506	20.7367	-19.1656	28.6249	25.7400 
746.039	-0.1436	-1.9609	1.2949	25.7629	-21.0828	28.1635	25.7400 
746.052	-0.5024	-2.5635	0.7495	29.9817	-22.8241	27.1033	25.7400 
746.073	-1.3042	-3.4150	-0.7778	32.4207	-24.1974	26.1200	25.7300 
746.135	-1.1958	-3.3999	-1.0464	30.6354	-24.6808	26.7133	25.7300 
746.138	-0.1895	0.6089	1.7031	25.8508	-22.3901	28.6523	25.7100 
746.138	0.4351	-0.0112	0.9121	20.3851	-19.8248	30.9320	25.6900 
746.151	-0.2773	0.1362	3.4102	14.7601	-18.2867	32.1460	25.7100 
746.171	0.4790	-0.4834	1.9102	9.6295	-18.7811	33.1073	25.7300 
746.191	0.1040	-0.0688	1.4204	6.1633	-19.9567	32.9645	25.7500 
746.211	-0.0098	-0.0430	1.2402	4.1748	-20.5444	32.9315	25.7600 
746.231	0.1323	-0.0493	1.0576	3.2025	-20.6598	32.9974	25.7600 
746.251	0.1494	-0.0952	1.0806	2.3840	-20.6598	33.1128	25.7700 
746.271	0.0947	-0.0835	1.0713	1.7578	-20.6049	33.2281	25.7600 
746.322	0.1162	-0.0737	1.0522	1.2305	-20.5609	33.2556	25.7600 
746.326	0.1685	-0.0942	1.0190	0.7141	-20.6543	33.2776	25.7700 
746.331	0.1875	-0.0840	0.9976	0.3186	-20.7861	33.3380	25.7700 
746.351	0.1846	-0.0938	0.9927	-0.0385	-20.8026	33.4534	25.7600 
746.371	0.1729	-0.0972	0.9883	-0.3845	-20.6708	33.6017	25.7600 
746.390	0.1641	-0.0972	0.9990	-0.7690	-20.4565	33.7885	25.7700 
746.410	0.1587	-0.0986	0.9946	-1.2140	-20.1764	34.0192	25.7600 
746.430	0.1641	-0.1035	0.9863	-1.7633	-19.8083	34.2664	25.7500 
746.451	0.1382	-0.1064	1.0029	-2.4060	-19.3524	34.4641	25.7500 
746.470	0.1191	-0.1621	1.0269	-3.3398	-18.7537	34.6564	25.7500 
746.494	0.1289	-0.1611	1.0093	-4.4440	-18.1165	34.8157	25.7500 
746.510	0.1353	-0.1729	1.0034	-5.6085	-17.5012	34.9585	25.7600 
746.564	0.1230	-0.1899	1.0088	-6.7072	-16.8750	35.1013	25.7600 
746.566	0.1069	-0.2661	1.0469	-7.7673	-16.2488	35.2332	25.7600 
746.569	0.0811	-0.2383	1.0298	-8.4869	-15.6335	35.2551	25.7800 
746.589	0.0718	-0.2334	1.0313	-8.9429	-15.0403	35.1508	25.7600 
746.609	0.0806	-0.2368	1.0620	-9.3219	-14.4635	34.9036	25.7800 
746.629	0.0967	-0.1841	1.0757	-9.8383	-13.8977	34.7058	25.7900 
746.648	0.1475	-0.0845	1.0645	-10.8160	-13.3978	34.6838	25.7900 
746.671	0.0889	0.2661	1.1563	-12.5793	-13.1396	35.2222	25.7900 
746.690	0.0835	0.5269	2.1143	-17.7319	-12.8870	36.7822	25.8000 
746.709	0.3955	0.2554	2.0688	-29.0533	-12.3486	38.9081	25.7800 
746.756	0.5635	0.5303	1.7808	-43.7970	-10.8380	40.7703	25.7800 
746.760	0.4844	-1.0889	5.0581	-54.2010	-6.1304	38.6774	25.7400 
746.768	0.9873	0.8608	2.2388	-54.2450	-3.8342	38.2104	25.7800 
746.788	0.9941	0.6504	0.6777	-50.6635	-3.1531	38.6444	25.7700 
746.808	0.9106	0.4131	0.7158	-46.1755	-3.1641	37.9907	25.7600 
746.831	0.7910	0.2905	1.1675	-41.6766	-3.4003	36.4966	25.7400 
746.848	0.4395	0.1284	1.2686	-35.9802	-4.1309	34.7278	25.7500 
746.868	0.1973	-0.0537	1.1313	-29.4049	-5.2734	33.2611	25.7500 
746.890	-0.0801	-0.2783	1.1108	-22.3956	-6.6138	32.2449	25.7300 
746.908	-0.2378	-0.3413	1.1948	-15.5017	-7.8552	31.5527	25.7300 
746.948	-0.3081	-0.4883	1.4604	-9.3658	-9.1681	31.4484	25.7400 
746.950	-0.1313	-0.5776	1.7271	-3.5486	-10.7062	31.7505	25.7300 
746.967	0.1045	-0.7681	1.8911	2.0435	-12.5244	32.0251	25.7100 
746.987	0.0815	-0.9741	2.0254	7.4982	-14.3866	31.7944	25.7100 
747.007	-0.0420	-1.3047	2.0513	12.8265	-16.1005	31.2396	25.7200 
747.027	0.0273	-1.5376	1.9077	18.0011	-17.8583	30.9320	25.7100 
747.048	0.0503	-1.9961	1.3345	22.8296	-19.7589	30.6024	25.7000 
747.067	-0.2075	-2.4771	0.7715	27.1088	-21.6376	29.6356	25.7100 
747.088	-1.0923	-3.2227	-0.8291	30.3003	-23.4998	28.2239	25.7100 
747.135	-0.9692	-3.3716	-1.3711	29.7565	-24.6698	27.8174	25.6900 
747.137	-0.4854	0.3887	1.1470	25.2301	-22.9669	29.2676	25.6900 
747.146	-0.1250	0.0059	1.2183	19.7919	-19.9786	30.3278	25.6700 
747.166	0.0171	0.8125	3.0210	14.0021	-18.2263	30.7507	25.7000 
747.186	0.0024	-0.3340	2.2642	7.3059	-19.6106	31.4978	25.7200 
747.206	0.2217	-0.1069	1.2178	4.6307	-20.6213	31.3824	25.7500 
747.226	0.1729	-0.0693	1.0747	3.6365	-20.7697	31.3495	25.7400 
747.245	0.1519	-0.0532	1.0366	2.9224	-20.8026	31.4154	25.7300 
747.265	0.1396	-0.0913	1.0542	2.1808	-20.7367	31.5143	25.7400 
747.286	0.1245	-0.0938	1.0498	1.4282	-20.7092	31.5912	25.7600 
747.306	0.1631	-0.1226	1.0669	0.7690	-20.7367	31.6736	25.7400 
747.325	0.1592	-0.0942	1.0269	0.3186	-20.6598	31.7615	25.7400 
747.381	0.1533	-0.1006	1.0269	-0.0879	-20.4840	31.8658	25.7500 
747.385	0.1470	-0.1147	1.0098	-0.5603	-20.2808	31.9922	25.7400 
747.387	0.1475	-0.1011	0.9873	-0.9778	-20.0720	32.1185	25.7500 
747.405	0.1602	-0.1157	0.9785	-1.4447	-19.7644	32.2888	25.7300 
747.425	0.1646	-0.1284	0.9937	-1.9775	-19.3414	32.4921	25.7300 
747.444	0.1436	-0.1465	1.0088	-2.5653	-18.7976	32.7173	25.7300 
747.465	0.1187	-0.1436	1.0098	-3.2520	-18.1934	32.8876	25.7500 
747.484	0.0972	-0.1738	1.0132	-4.3341	-17.5507	33.0194	25.7500 
747.504	0.1001	-0.1821	1.0103	-5.5316	-16.9629	33.1128	25.7500 
747.526	0.1050	-0.2280	1.0190	-6.6797	-16.4355	33.1622	25.7500 
747.571	0.1099	-0.2275	1.0078	-7.5476	-15.9027	33.1622	25.7500 
747.574	0.0981	-0.2134	1.0161	-8.0695	-15.3589	33.1238	25.7500 
747.584	0.0801	-0.2432	1.0146	-8.4924	-14.8535	33.0469	25.7400 
747.604	0.0439	-0.2598	1.0259	-8.7177	-14.3042	32.8381	25.7500 
747.624	0.0596	-0.2212	1.0430	-8.7891	-13.6890	32.4646	25.7500 
747.644	0.0850	-0.1909	1.0610	-8.9209	-13.0353	32.0142	25.7700 
747.664	0.1631	-0.1650	1.0444	-9.7009	-12.4091	31.7780	25.7800 
747.684	0.1768	0.1724	1.0820	-10.9039	-12.0190	32.0471	25.7700 
747.705	0.1284	0.4507	1.7983	-14.5844	-11.8488	33.4424	25.7500 
747.759	0.3828	0.5454	2.0200	-23.8458	-11.1182	35.9583	25.7700 
747.762	0.8418	0.2690	1.8311	-37.2546	-9.2505	38.3807	25.7500 
747.764	0.6675	-0.2368	3.1387	-51.0974	-4.0265	38.1610	25.7600 
747.783	1.3398	0.7173	3.8564	-56.0468	-0.4889	36.5900	25.7200 
747.803	1.2559	0.6670	1.4160	-53.4979	-0.5603	37.2711	25.7300 
747.823	0.7490	0.3394	0.4580	-49.2572	-1.7908	37.0953	25.7500 
747.843	0.5601	0.2759	0.7305	-44.9561	-3.0212	35.7166	25.7400 
747.863	0.3652	0.1128	1.2300	-40.0616	-4.1089	33.9313	25.7300 
747.883	0.2480	-0.0039	1.2354	-34.0851	-5.2844	32.3163	25.7300 
747.906	0.0728	-0.2515	1.0762	-27.5153	-6.6907	31.1462	25.7200 
747.948	-0.0923	-0.3960	1.1138	-20.6378	-8.1903	30.2509	25.7200 
747.950	-0.3008	-0.5083	1.2686	-13.9636	-9.7614	29.7180	25.7300 
747.962	-0.3511	-0.5952	1.4297	-7.8662	-11.3324	29.4873	25.7200 
747.982	-0.1392	-0.6738	1.6104	-2.2302	-12.8210	29.7345	25.7100 
748.002	-0.0054	-0.7134	1.6885	3.1531	-14.2822	30.0366	25.6900 
748.022	-0.1646	-0.7983	1.9170	8.4375	-15.7709	29.9158	25.7000 
748.042	-0.1611	-0.9673	2.0576	13.6230	-17.3639	29.6356	25.6900 
748.062	0.0269	-1.3818	1.8184	18.7042	-19.1492	29.6411	25.6700 
748.082	-0.0371	-1.7222	1.4189	23.6371	-21.1816	29.4873	25.6900 
748.102	-0.3428	-2.5303	0.6440	27.7899	-23.1866	28.5040	25.6800 
748.121	-0.9307	-3.1006	0.0166	30.7672	-25.0763	27.1143	25.6800 
748.141	-0.8438	-3.0332	-0.8271	30.1465	-26.1530	26.6583	25.6500 
748.190	-0.6357	-0.7983	0.8882	26.5320	-23.8184	27.0538	25.6600 
748.193	-0.3276	0.2476	0.6475	22.0825	-19.9512	27.7350	25.6300 
748.201	-0.9717	-0.3569	2.0034	16.9958	-17.3199	28.0920	25.6400 
748.221	0.9419	-1.6133	3.0083	11.9806	-16.8530	28.6798	25.6600 
748.241	-0.3892	-0.0122	1.9209	7.9926	-18.0835	28.9764	25.7200 
748.261	0.0239	-0.0361	1.2061	5.5371	-18.9679	28.9325	25.7200 
748.281	0.1743	-0.0913	1.0874	4.0869	-19.1547	29.0533	25.7200 
748.301	0.1367	-0.1050	1.0845	3.1036	-19.1876	29.2511	25.7200 
748.320	0.1025	-0.0806	1.0732	2.3346	-19.1766	29.4598	25.7300 
748.340	0.1226	-0.0928	1.0552	1.6589	-19.1986	29.5642	25.7100 
748.380	0.1699	-0.1255	1.0625	1.0822	-19.2975	29.6576	25.7300 
748.383	0.1748	-0.1060	1.0039	0.5823	-19.2975	29.7675	25.7200 
748.400	0.1802	-0.0977	0.9976	0.1263	-19.1821	29.9213	25.7200 
748.420	0.1758	-0.0898	0.9722	-0.3351	-18.9899	30.0970	25.7300 
748.440	0.1660	-0.1069	0.9746	-0.8899	-18.6823	30.3223	25.7100 
748.462	0.1553	-0.1025	0.9761	-1.5381	-18.2428	30.5750	25.7000 
748.479	0.1387	-0.1724	1.0298	-2.3511	-17.6550	30.8551	25.7100 
748.500	0.1245	-0.1587	1.0205	-3.3069	-16.9849	31.0968	25.7300 
748.520	0.1040	-0.1841	1.0259	-4.4659	-16.3257	31.3055	25.7300 
748.569	0.1045	-0.2090	1.0024	-5.6470	-15.7709	31.4539	25.7100 
748.571	0.1167	-0.2568	1.0239	-6.7072	-15.2710	31.5692	25.7200 
748.579	0.1079	-0.2280	1.0171	-7.3773	-14.7491	31.6351	25.7300 
748.599	0.0869	-0.2344	1.0166	-7.8882	-14.2328	31.6516	25.7200 
748.618	0.0542	-0.2510	1.0308	-8.2837	-13.7274	31.5692	25.7300 
748.638	0.0430	-0.2422	1.0356	-8.5364	-13.1561	31.3605	25.7200 
748.659	0.0874	-0.1709	1.0498	-8.7341	-12.5574	31.0254	25.7200 
748.679	0.1299	-0.1636	1.0708	-9.2834	-12.0575	30.8221	25.7300 
748.699	0.1431	0.1553	1.1401	-10.3986	-11.7993	31.1792	25.7400 
748.764	0.0601	0.7485	1.6533	-13.3923	-11.6455	32.4261	25.7600 
748.770	0.2666	0.1758	2.0405	-23.0823	-11.1731	34.6783	25.7400 
748.770	0.7759	0.3145	1.9927	-37.3810	-10.3052	37.3700	25.7400 
748.780	0.5151	-0.0303	3.6270	-52.2235	-7.0203	38.6279	25.7200 
748.798	1.1924	0.8906	3.6641	-56.7719	-3.5760	38.2269	25.7200 
748.818	1.2383	0.7100	1.3296	-53.9539	-2.5433	39.3091	25.7100 
748.838	0.9087	0.4312	0.4053	-49.3726	-2.5488	39.3475	25.7200 
748.858	0.7422	0.3613	0.7515	-44.4287	-3.0817	38.5236	25.7100 
748.877	0.5664	0.1860	1.3921	-39.3530	-4.1968	37.4634	25.7000 
748.898	0.3516	0.0518	1.3618	-33.1677	-5.8447	36.1395	25.6900 
748.917	-0.0938	-0.2090	1.1528	-26.0596	-7.4707	34.6179	25.6900 
748.950	-0.3335	-0.3110	1.2007	-18.6987	-8.8605	33.2996	25.6700 
748.959	-0.5542	-0.4277	1.5029	-11.7719	-10.1843	32.6624	25.6700 
748.977	-0.4912	-0.5762	1.7354	-5.4822	-11.5741	32.8107	25.6600 
748.997	-0.1157	-0.7866	1.8413	0.4999	-12.9694	33.4204	25.6600 
749.017	0.0376	-0.9741	1.8652	6.2622	-14.3756	33.7445	25.6700 
749.037	-0.1660	-1.3086	1.9526	11.8433	-15.4852	33.5138	25.6500 
749.057	-0.2505	-1.6216	1.9985	17.1881	-16.6882	33.3160	25.6400 
749.077	-0.2466	-2.2383	1.3096	22.3462	-18.4406	33.0853	25.6200 
749.097	-0.2744	-2.6216	0.2476	26.8176	-20.1270	32.3163	25.6300 
749.117	-1.3398	-3.3833	-0.5562	28.6304	-21.1102	31.6241	25.6300 
749.136	-1.1196	-4.0352	-1.3213	26.9659	-21.6980	32.1460	25.6200 
749.187	0.1226	0.6772	1.9526	22.5989	-19.8907	33.1897	25.6100 
749.189	0.1460	-0.1792	1.2617	17.1881	-18.6877	34.8871	25.6100 
749.196	0.8486	-2.5679	5.0103	10.8380	-18.6603	35.7605	25.6400 
749.216	-0.2881	-0.0088	1.9346	5.1746	-20.2643	36.2494	25.6700 
749.236	-0.0356	-0.1069	1.2451	3.0267	-20.6653	36.3043	25.6700 
749.256	0.1655	-0.1470	1.1650	1.9556	-20.8630	36.3538	25.6900 
749.276	0.2153	-0.1328	1.0679	1.0931	-21.0278	36.4581	25.6800 
749.296	0.1465	-0.1011	1.0635	0.3241	-21.1487	36.6174	25.6900 
749.316	0.1816	-0.1353	1.0771	-0.3021	-21.2640	36.7438	25.6900 
749.335	0.1787	-0.1064	1.0283	-0.7745	-21.3080	36.8591	25.6900 
749.377	0.1777	-0.0957	1.0029	-1.1261	-21.2366	36.9525	25.6800 
749.379	0.1646	-0.0972	1.0044	-1.5765	-21.0938	37.0734	25.6900 
749.395	0.1860	-0.1084	0.9678	-2.1259	-20.9399	37.2272	25.6900 
749.415	0.1812	-0.1255	0.9775	-2.7521	-20.6982	37.4524	25.7100 
749.435	0.1772	-0.1514	0.9922	-3.4003	-20.3302	37.6831	25.6800 
749.455	0.1704	-0.1719	1.0044	-4.0814	-19.8303	37.9138	25.6800 
749.475	0.1426	-0.1606	0.9966	-4.8560	-19.2041	38.1061	25.6900 
749.498	0.1333	-0.1831	1.0186	-5.8832	-18.5944	38.2654	25.7000 
749.516	0.1299	-0.2065	1.0103	-6.9598	-18.0396	38.4027	25.7000 
749.572	0.1353	-0.2031	0.9897	-7.9486	-17.5122	38.5016	25.7100 
749.576	0.1289	-0.2568	1.0073	-8.9044	-17.0178	38.6499	25.6900 
749.579	0.1157	-0.2476	1.0161	-9.5911	-16.5894	38.7653	25.6900 
749.595	0.0952	-0.2446	1.0254	-9.9097	-16.1554	38.7872	25.7100 
749.614	0.0894	-0.2427	1.0278	-9.9866	-15.6940	38.6609	25.7000 
749.634	0.0908	-0.2368	1.0449	-10.0964	-15.2490	38.4357	25.7100 
749.654	0.0986	-0.2266	1.0596	-10.4205	-14.7546	38.1775	25.7000 
749.674	0.1289	-0.1406	1.0615	-11.2939	-14.2438	38.0347	25.7100 
749.694	0.1216	-0.0313	1.0161	-12.7332	-13.7769	38.1390	25.6900 
749.713	0.0742	0.4048	1.5127	-15.4907	-13.4967	38.7653	25.7300 
749.737	0.1294	0.4087	2.0557	-22.2968	-13.1451	39.9628	25.7200 
749.753	0.6782	0.2900	2.0449	-34.8047	-13.2385	41.8085	25.7100 
749.773	0.7217	0.3203	1.8706	-49.3341	-12.6453	43.6542	25.7000 
749.813	1.2007	0.8057	4.8457	-58.1616	-9.1791	41.5228	25.6900 
749.815	0.9624	0.8740	2.2427	-57.6453	-7.6135	40.3583	25.6800 
749.833	0.6445	0.4917	0.6621	-53.2068	-7.1521	39.5728	25.6900 
749.853	0.6396	0.3491	0.8169	-47.8729	-6.6302	38.3038	25.6800 
749.873	0.5845	0.1694	1.1206	-41.6547	-6.1963	36.8481	25.6800 
749.893	0.5200	-0.0171	1.1953	-35.3320	-6.1359	35.6287	25.6700 
749.913	0.4102	-0.1821	1.2114	-28.5480	-6.6467	34.6674	25.6600 
749.934	0.1240	-0.4048	1.1821	-21.2970	-7.5586	33.7939	25.6500 
749.952	-0.0908	-0.5098	1.1934	-14.1010	-8.6627	33.0414	25.6600 
750.004	-0.1504	-0.6396	1.4097	-7.6355	-9.8712	32.6294	25.6600 
750.007	0.0005	-0.7207	1.6133	-1.9061	-11.1841	32.6184	25.6500 
750.012	0.1152	-0.8794	1.8999	3.6090	-12.6288	32.5031	25.6300 
750.032	0.0093	-1.0894	2.0703	9.1626	-14.0735	31.9812	25.6300 
750.052	-0.2017	-1.4727	2.0625	14.7876	-15.5731	31.5967	25.6100 
750.072	-0.1714	-1.7637	1.7461	20.3632	-17.4518	31.6571	25.5800 
750.092	-0.1108	-2.3325	1.0132	25.4169	-19.4843	31.4044	25.6200 
750.112	-0.2939	-2.7397	0.4082	29.3665	-21.2311	30.6573	25.6200 
750.132	-0.8975	-3.0757	-0.0181	31.4154	-22.9559	29.8334	25.6000 
750.151	-0.8032	-3.0522	-0.3887	30.1465	-24.4775	29.8553	25.6100 
750.195	-0.3086	0.6396	1.3086	26.2683	-23.6371	31.4758	25.5800 
750.198	0.1421	0.2881	0.3291	22.0441	-21.5552	33.0579	25.5800 
750.211	-0.5054	-0.3765	1.9214	16.8970	-19.9731	34.5685	25.5800 
750.231	1.0269	-1.2227	3.5508	11.8323	-19.6051	35.1343	25.6100 
750.251	-0.5083	-0.0283	2.1450	7.6630	-20.6982	34.9915	25.6300 
750.271	0.2251	-0.0776	1.2290	5.0647	-21.4948	34.7937	25.6600 
750.291	0.1958	-0.0762	1.0771	3.8452	-21.6870	34.7333	25.6600 
750.311	0.2231	-0.1035	1.0625	3.0377	-21.8298	34.9036	25.6400 
750.331	0.1338	-0.0752	1.0947	2.4774	-21.8463	35.0739	25.6700 
750.385	0.1411	-0.0820	1.0532	1.9171	-21.8243	35.1782	25.6600 
750.389	0.1626	-0.0786	1.0273	1.3513	-21.8958	35.2551	25.6400 
750.390	0.1812	-0.1001	1.0210	0.7086	-21.9946	35.3870	25.6600 
750.410	0.1719	-0.1016	1.0093	0.1373	-22.0001	35.5353	25.6600 
750.431	0.1807	-0.0947	1.0000	-0.3955	-21.9781	35.6836	25.6800 
750.450	0.1943	-0.1030	0.9766	-0.9613	-21.8353	35.8868	25.6800 
750.469	0.1909	-0.1021	0.9717	-1.6095	-21.5442	36.1285	25.6600 
750.490	0.1812	-0.1216	0.9766	-2.4664	-21.1322	36.4362	25.6700 
750.510	0.1748	-0.1753	0.9980	-3.5101	-20.6268	36.7932	25.6700 
750.529	0.1250	-0.1816	1.0210	-4.5978	-19.9841	37.1008	25.6600 
750.550	0.1294	-0.1968	1.0166	-5.6580	-19.3359	37.3096	25.6600 
750.569	0.1401	-0.1924	0.9976	-6.5808	-18.7427	37.4689	25.6400 
750.645	0.1333	-0.1919	0.9956	-7.2015	-18.1274	37.5513	25.6500 
750.648	0.0952	-0.2422	1.0425	-7.5641	-17.4683	37.5842	25.6600 
750.648	0.0903	-0.2285	1.0283	-7.6355	-16.7651	37.4469	25.6600 
750.651	0.0879	-0.2041	1.0620	-7.6190	-16.0675	37.1722	25.6700 
750.668	0.1211	-0.2134	1.1011	-7.8772	-15.3589	36.8372	25.6600 
750.689	0.1089	-0.1646	1.0757	-8.6737	-14.7162	36.6064	25.6700 
750.708	0.1821	0.0054	1.0093	-10.1678	-14.4415	36.7163	25.6800 
750.728	0.1641	0.2798	1.2666	-12.7002	-14.3811	37.3645	25.7000 
750.784	0.0640	0.3794	2.0244	-18.1055	-14.0955	38.5840	25.6900 
750.787	0.5635	0.2515	2.0396	-30.2124	-13.8757	40.5780	25.6900 
750.790	0.7158	0.5557	1.6309	-45.5933	-13.1946	42.8192	25.6800 
750.808	1.2593	0.4292	5.1885	-56.4478	-9.6185	41.2482	25.6600 
750.828	1.0630	0.9351	2.9224	-57.4695	-7.5256	39.3860	25.6500 
750.847	0.6260	0.6270	0.7778	-53.2013	-7.0422	38.3917	25.6500 
750.869	0.5474	0.5005	0.7075	-47.4829	-6.7017	37.2162	25.6500 
750.889	0.5391	0.2734	1.1875	-41.8085	-6.3940	36.1011	25.6600 
750.907	0.4399	0.1274	1.2227	-35.6561	-6.3721	35.2167	25.6300 
750.928	0.2876	-0.1543	1.1597	-28.6249	-6.9324	34.6234	25.6300 
750.948	0.1763	-0.2935	1.1636	-21.3135	-7.8278	34.0686	25.6300 
750.967	-0.1006	-0.4727	1.3218	-14.3042	-8.8440	33.5138	25.6200 
750.987	-0.1973	-0.6309	1.5435	-7.8168	-10.0085	33.1787	25.6200 
751.021	-0.0146	-0.8140	1.8496	-1.5930	-11.6071	33.3875	25.6200 
751.035	0.0425	-0.9365	1.9268	4.4714	-13.4692	33.6456	25.6300 
751.047	0.0566	-1.1450	1.9873	10.2722	-15.5237	33.5742	25.6100 
751.067	-0.0190	-1.5840	2.1323	15.7983	-17.4133	33.3490	25.5900 
751.087	0.0542	-1.9116	1.8545	21.1322	-19.2041	33.1018	25.5700 
751.110	-0.0908	-2.6304	0.9365	25.9937	-21.0883	32.4646	25.5700 
751.126	-0.4814	-3.1001	0.2837	29.8663	-23.1976	31.1243	25.5800 
751.146	-0.9351	-3.4429	-0.8755	31.4813	-25.4443	29.7125	25.5900 
751.167	-0.6299	-2.4351	-0.9854	28.3502	-25.5432	30.1300	25.5600 
751.219	-0.2637	0.5791	1.3237	23.9117	-22.3956	30.6189	25.5600 
751.223	-1.4404	-0.1069	1.2222	18.9185	-19.8029	30.3168	25.5700 
751.226	0.9302	-2.9248	5.6362	12.5354	-19.6765	30.8276	25.5900 
751.246	0.0386	-0.2725	2.2231	7.7344	-21.3739	31.2012	25.6100 
751.266	0.1665	-0.0967	1.1685	6.3171	-21.2146	31.1078	25.6600 
751.286	0.2261	-0.1460	1.1128	5.4053	-21.0498	31.2231	25.6300 
751.306	0.1382	-0.1182	1.0923	4.7461	-20.8191	31.3275	25.6200 
751.326	0.1006	-0.0659	1.0806	4.2572	-20.7092	31.3660	25.6300 
751.345	0.1577	-0.0884	1.0464	3.6639	-20.5774	31.3550	25.6400 
751.367	0.1499	-0.0845	1.0449	3.0762	-20.4785	31.3770	25.6300 
751.406	0.1553	-0.0723	1.0073	2.4170	-20.3522	31.4319	25.6300 
751.408	0.1431	-0.1011	1.0039	1.6205	-20.2478	31.5582	25.6400 
751.425	0.1611	-0.1250	0.9780	0.6592	-20.0171	31.7889	25.6200 
751.445	0.1313	-0.1475	1.0122	-0.4889	-19.6051	32.0856	25.6300 
751.466	0.1221	-0.1655	1.0083	-1.7688	-19.0393	32.3438	25.6300 
751.485	0.1152	-0.1870	1.0083	-3.1256	-18.4186	32.5305	25.6500 
751.505	0.1055	-0.2373	1.0303	-4.5154	-17.8088	32.6514	25.6400 
751.525	0.1069	-0.2534	1.0186	-5.8008	-17.2266	32.7283	25.6300 
751.545	0.1040	-0.2485	1.0005	-6.7291	-16.6443	32.7612	25.6300 
751.592	0.0894	-0.2583	1.0024	-7.2949	-16.1060	32.7448	25.6300 
751.596	0.0669	-0.2554	1.0146	-7.4432	-15.6061	32.6184	25.6400 
751.604	0.0488	-0.2441	1.0322	-7.4158	-15.0787	32.3547	25.6300 
751.624	0.0449	-0.2349	1.0269	-7.3279	-14.4196	31.8658	25.6500 
751.643	0.0859	-0.1958	1.0503	-7.2180	-13.6835	31.2616	25.6400 
751.664	0.1387	-0.2437	1.0073	-7.5916	-12.9858	30.8386	25.6700 
751.684	0.2124	0.0010	1.0718	-8.6023	-12.4640	30.9485	25.6600 
751.703	0.0552	0.4224	1.5542	-11.0522	-12.2388	31.9702	25.6700 
751.724	0.2783	0.4092	2.0532	-18.2922	-11.9147	34.1840	25.6700 
751.745	0.7476	0.3442	1.9878	-31.0583	-10.5963	36.8536	25.6600 
751.766	0.4604	0.3174	2.8032	-45.8075	-6.5039	38.0621	25.6500 
751.783	1.0815	0.8452	3.8799	-52.9980	-2.2522	37.2986	25.6300 
751.830	1.3247	0.7305	1.2827	-51.3556	-1.6864	38.8202	25.6300 
751.832	0.8999	0.4194	0.4351	-47.5543	-2.3730	39.2926	25.6200 
751.843	0.6030	0.3521	0.8706	-43.0884	-3.4607	38.3917	25.6400 
751.863	0.2729	0.2769	1.3389	-37.7600	-4.9548	37.1063	25.6400 
751.883	0.0459	0.0586	1.3301	-31.8823	-6.7731	35.7715	25.6400 
751.903	-0.2197	-0.1807	1.1465	-25.2850	-8.5144	34.3982	25.6300 
751.922	-0.3940	-0.3198	1.1821	-18.7646	-10.0195	33.1677	25.6300 
751.942	-0.5107	-0.4683	1.3477	-12.2552	-11.3544	32.5140	25.6000 
751.966	-0.4980	-0.5386	1.5078	-5.7513	-12.6343	32.3822	25.5900 
751.982	-0.2158	-0.6841	1.7095	0.0934	-13.8867	32.7942	25.5700 
752.017	-0.0703	-0.8032	1.7944	5.3229	-15.2161	33.2391	25.5800 
752.022	-0.0264	-1.0601	1.8896	10.3381	-16.6223	33.3270	25.6000 
752.042	0.0015	-1.2910	1.8184	15.1941	-18.0780	33.2996	25.5800 
752.062	-0.0693	-1.6865	1.5659	19.7424	-20.0171	33.5138	25.5800 
752.082	-0.0850	-1.9546	1.2080	24.1644	-22.2913	33.2996	25.5600 
752.103	-0.5190	-2.5093	0.0439	27.9053	-24.1919	32.4152	25.5700 
752.122	-0.9297	-2.9922	-0.5776	29.6631	-25.4938	31.7450	25.5700 
752.142	-0.6558	-1.7856	-0.4409	27.3889	-25.2905	32.5800	25.5600 
752.162	-0.4795	0.5796	1.5181	23.7360	-22.1979	32.8107	25.5700 
752.211	-0.9434	-0.2192	1.6631	19.4128	-19.8853	32.7942	25.5600 
752.214	0.2529	0.5918	2.7681	14.9249	-18.9459	32.8601	25.5600 
752.224	0.5537	-0.4692	1.6196	10.1404	-19.8962	33.6511	25.5900 
752.241	0.2783	-0.0664	1.2285	7.2949	-20.9509	33.2776	25.6100 
752.261	-0.0356	-0.0088	1.2041	5.3998	-21.0608	33.1128	25.6200 
752.281	0.1001	-0.0806	1.1157	4.2023	-20.9344	33.1073	25.6300 
752.300	0.1274	-0.1177	1.1099	3.6090	-20.6982	33.0908	25.6200 
752.320	0.0771	-0.0679	1.0557	3.2245	-20.5115	32.9315	25.6200 
752.341	0.1216	-0.0562	1.0342	2.9608	-20.4016	32.6843	25.6300 
752.360	0.1865	-0.0732	1.0068	2.6147	-20.3357	32.4921	25.6000 
752.380	0.1738	-0.0952	1.0244	2.1918	-20.1874	32.3932	25.6300 
752.402	0.1572	-0.0762	1.0098	1.8402	-19.9622	32.3218	25.6100 
752.459	0.1475	-0.0747	1.0146	1.4227	-19.7260	32.2888	25.6200 
752.464	0.1504	-0.0913	1.0024	0.9064	-19.4678	32.2833	25.6200 
752.464	0.1226	-0.1099	1.0151	0.2856	-19.0942	32.3053	25.6100 
752.480	0.1191	-0.1128	1.0151	-0.4779	-18.5889	32.3328	25.6100 
752.500	0.1172	-0.1343	1.0293	-1.4777	-18.0011	32.3273	25.6100 
752.519	0.1143	-0.1489	1.0181	-2.7191	-17.3969	32.2998	25.6200 
752.539	0.1157	-0.1724	1.0112	-4.1089	-16.8091	32.2723	25.6300 
752.559	0.0933	-0.2197	1.0215	-5.4602	-16.2158	32.2229	25.6200 
752.580	0.0991	-0.2300	1.0093	-6.5094	-15.6226	32.1460	25.6300 
752.599	0.0776	-0.2383	1.0220	-7.1191	-15.0183	31.9757	25.6300 
752.650	0.0610	-0.2563	1.0200	-7.5092	-14.4086	31.7175	25.6300 
752.651	0.0474	-0.2344	1.0366	-7.6190	-13.8428	31.3000	25.6200 
752.659	0.0669	-0.2183	1.0259	-7.6630	-13.2440	30.7562	25.6300 
752.679	0.1152	-0.1528	1.0615	-7.8772	-12.6617	30.2399	25.6300 
752.701	0.1392	-0.1260	1.0601	-8.6737	-12.1674	30.0146	25.6300 
752.719	0.1284	0.1113	1.2090	-10.4590	-11.8597	30.4816	25.6500 
752.738	0.1299	0.5249	1.9243	-15.3040	-11.5137	31.9757	25.6600 
752.759	0.4058	0.0576	1.9404	-25.7904	-10.4810	34.5081	25.6400 
752.778	0.5781	0.3428	1.6538	-39.8145	-7.9211	36.7932	25.6300 
752.798	0.5220	-0.4199	4.7231	-51.6138	-2.9114	36.3318	25.6200 
752.835	1.1704	0.5938	2.8677	-53.9044	-0.9888	37.0294	25.6100 
752.838	1.0073	0.3721	0.6558	-51.4380	-1.5436	38.4906	25.6100 
752.858	0.7139	0.2681	0.5327	-47.6752	-2.8510	38.2544	25.6100 
752.878	0.3423	0.2285	0.9063	-43.4839	-4.2737	36.8152	25.6300 
752.898	0.1392	0.1865	1.0522	-38.7213	-5.8282	35.1837	25.6200 
752.918	-0.0420	0.0107	1.0708	-33.2227	-7.5146	33.7885	25.6100 
752.938	-0.1543	-0.1436	1.1299	-27.2516	-9.1187	32.5964	25.6100 
752.957	-0.3623	-0.3071	1.2510	-20.8081	-10.5029	31.5967	25.6000 
752.977	-0.4653	-0.3867	1.2881	-14.3152	-11.7609	30.9760	25.5900 
753.023	-0.3525	-0.5283	1.4121	-8.3936	-13.0133	30.8881	25.5900 
753.028	-0.1655	-0.6411	1.6406	-2.9883	-14.1724	31.1902	25.6000 
753.037	0.0283	-0.7485	1.9331	2.3236	-15.3314	31.4539	25.5900 
753.057	0.0815	-0.8892	1.9097	7.7948	-16.5729	31.3660	25.5800 
753.076	0.1577	-1.2236	1.7915	13.2275	-17.7704	30.9869	25.5600 
753.097	0.1787	-1.4385	1.5854	18.4296	-19.1821	30.8881	25.5500 
753.119	0.0933	-1.8325	1.1133	23.1317	-21.1157	30.2838	25.5500 
753.136	-0.1904	-2.2256	0.7427	27.2296	-23.0658	28.8171	25.5600 
753.157	-0.9722	-3.0269	-0.1719	30.1465	-24.8346	27.0044	25.5600 
753.176	-0.8188	-2.8643	-0.6089	30.4596	-26.4001	26.1639	25.5600 
753.196	-0.2383	-0.2041	0.9448	26.7242	-25.2631	27.1857	25.5700 
753.216	-0.0391	0.5073	0.9893	22.5220	-22.2308	27.6746	25.5600 
753.262	-1.2192	-0.2368	1.8369	17.3090	-19.9677	27.8229	25.5400 
753.264	0.8535	-2.4165	4.1768	11.5137	-19.4568	28.2898	25.5600 
753.276	-0.1597	-0.0830	1.6270	7.4377	-20.9564	28.2623	25.6200 
753.296	0.1201	-0.1079	1.1714	5.9106	-21.2311	28.0646	25.6100 
753.316	0.1694	-0.1235	1.1045	4.9713	-21.1816	27.9822	25.6000 
753.335	0.1177	-0.0884	1.0732	4.3506	-21.0004	27.9163	25.6200 
753.356	0.1040	-0.0811	1.0674	3.9771	-20.7751	27.8064	25.6200 
753.375	0.1055	-0.0791	1.0396	3.5376	-20.5664	27.6526	25.6200 
753.396	0.1509	-0.0820	1.0303	3.1421	-20.4456	27.4658	25.6200 
753.453	0.1616	-0.1128	1.0239	2.7136	-20.3137	27.3724	25.6000 
753.464	0.1606	-0.0908	1.0068	2.3785	-20.1160	27.3065	25.6200 
753.464	0.1563	-0.0825	1.0010	2.0215	-19.9182	27.2900	25.6200 
753.479	0.1572	-0.0903	0.9912	1.5381	-19.7205	27.3450	25.6100 
753.494	0.1362	-0.0996	0.9941	0.8734	-19.3964	27.4768	25.6200 
753.515	0.1157	-0.1523	1.0391	0.0494	-18.9240	27.6141	25.5900 
753.534	0.1050	-0.1523	1.0249	-0.8350	-18.4131	27.6306	25.6200 
753.556	0.1094	-0.1587	1.0176	-1.9006	-17.9077	27.5702	25.6100 
753.574	0.1147	-0.1899	1.0161	-3.0817	-17.3969	27.5043	25.6200 
753.594	0.1182	-0.1953	0.9995	-4.2902	-16.8860	27.4493	25.6200 
753.643	0.1128	-0.2261	0.9961	-5.4163	-16.3861	27.4164	25.6000 
753.650	0.0986	-0.2358	1.0142	-6.2567	-15.8588	27.3615	25.6100 
753.654	0.0723	-0.2539	1.0151	-6.7017	-15.3479	27.1582	25.6300 
753.674	0.0615	-0.2607	1.0190	-6.9104	-14.8645	26.8176	25.6300 
753.694	0.0552	-0.2446	1.0254	-6.8994	-14.3756	26.3342	25.6100 
753.713	0.0903	-0.2100	1.0356	-6.8445	-13.8428	25.8234	25.6100 
753.733	0.1187	-0.1738	1.0659	-7.0972	-13.3319	25.4443	25.6100 
753.753	0.1484	-0.1563	1.0542	-7.8937	-12.8870	25.3839	25.6100 
753.774	0.0874	0.0298	1.1230	-9.5801	-12.6947	26.0156	25.6300 
753.795	0.0420	0.4868	1.7412	-13.8263	-12.6068	27.6306	25.6400 
753.842	0.3457	0.0288	2.0356	-24.4061	-12.2168	30.0421	25.6200 
753.852	0.6382	0.1870	1.7139	-38.6169	-11.4258	32.4921	25.6200 
753.858	0.5313	-1.3213	4.8599	-51.2732	-7.7948	32.3218	25.6000 
753.873	1.0093	0.7734	3.5308	-54.6075	-5.2844	31.6681	25.6000 
753.893	0.9053	0.5786	0.7124	-51.8060	-4.8010	31.9702	25.6200 
753.914	0.7656	0.3809	0.5200	-47.3566	-4.9713	31.4099	25.6100 
753.932	0.6025	0.2959	1.0718	-42.3138	-5.3723	30.1080	25.6000 
753.952	0.4648	0.1743	1.2925	-36.9360	-6.2018	28.6084	25.6000 
753.972	0.1787	-0.0347	1.1724	-30.7233	-7.3663	27.0154	25.5800 
753.993	-0.0591	-0.1934	1.0454	-24.1974	-8.5858	25.4883	25.5800 
754.029	-0.3286	-0.3428	1.1265	-17.6495	-9.7284	24.2578	25.6000 
754.033	-0.4116	-0.3809	1.3623	-11.0797	-10.8105	23.5547	25.5800 
754.051	-0.3140	-0.4907	1.6387	-4.9274	-11.8488	23.4558	25.5700 
754.071	-0.0977	-0.6182	1.7168	0.5933	-13.0078	23.7909	25.5700 
754.092	0.1987	-0.8125	1.7656	5.7843	-14.3591	24.1150	25.5600 
754.112	0.1606	-1.0098	1.8945	10.7886	-15.5621	24.0436	25.5500 
754.131	0.0781	-1.3286	2.0347	15.6885	-16.5894	23.8184	25.5300 
754.151	0.0552	-1.6060	1.7842	20.6433	-18.0396	23.9832	25.5400 
754.171	-0.1694	-2.0493	1.0903	25.5487	-20.0391	23.6536	25.5200 
754.191	-0.6411	-2.5801	0.4536	29.9707	-21.9177	22.5659	25.5400 
754.215	-1.3525	-3.0771	-0.9351	32.3987	-23.6041	21.7145	25.5400 
754.231	-0.9805	-2.9243	-1.1255	30.7672	-24.8126	22.5110	25.5300 
754.267	-0.0439	0.5820	1.5645	25.7355	-23.0823	24.9390	25.5300 
754.270	0.6050	-0.0679	1.1196	19.9841	-21.2585	27.3450	25.5100 
754.291	0.7017	-2.7861	5.6069	13.2825	-20.8630	29.1852	25.5400 
754.310	-0.2964	-0.0391	1.8711	6.3666	-22.5989	30.4486	25.5700 
754.330	0.0781	-0.1582	1.2886	4.2462	-23.0109	30.1245	25.5800 
754.350	0.1816	-0.1060	1.0864	3.3014	-22.9669	29.9158	25.5900 
754.370	0.1816	-0.0850	1.0337	2.7191	-22.8955	29.8663	25.5800 
754.390	0.1431	-0.0850	1.0532	2.3950	-22.7692	29.8334	25.5800 
754.410	0.1230	-0.0918	1.0474	2.0270	-22.6263	29.7565	25.5800 
754.458	0.1279	-0.0825	1.0308	1.6864	-22.5494	29.6356	25.5900 
754.459	0.1533	-0.0811	1.0234	1.4282	-22.5330	29.5148	25.5900 
754.470	0.1895	-0.0845	0.9878	1.1481	-22.5220	29.4543	25.5700 
754.490	0.1948	-0.1113	1.0059	0.8954	-22.5439	29.4434	25.5900 
754.509	0.1846	-0.0918	0.9917	0.6537	-22.4945	29.4598	25.5800 
754.531	0.1675	-0.0938	1.0049	0.3076	-22.3462	29.5093	25.5800 
754.549	0.1680	-0.1123	1.0176	-0.1373	-22.1210	29.5972	25.5900 
754.569	0.1533	-0.1006	1.0005	-0.6702	-21.8243	29.7070	25.5900 
754.589	0.1401	-0.1074	1.0024	-1.3074	-21.4728	29.7894	25.5800 
754.609	0.1421	-0.1543	1.0342	-2.0544	-21.0938	29.8444	25.5700 
754.629	0.1465	-0.1553	1.0073	-2.9059	-20.6158	29.8773	25.5900 
754.650	0.1523	-0.1626	1.0020	-3.9496	-20.0665	29.9048	25.5700 
754.696	0.1445	-0.1772	0.9951	-5.0153	-19.5227	29.9487	25.5700 
754.700	0.1313	-0.1826	1.0029	-5.9106	-18.9185	29.9377	25.5800 
754.709	0.1025	-0.2593	1.0371	-6.6193	-18.2758	29.8389	25.5900 
754.728	0.1060	-0.2354	1.0093	-7.0148	-17.6495	29.6466	25.5900 
754.748	0.0977	-0.2329	1.0244	-7.0752	-17.0398	29.3500	25.5800 
754.768	0.1128	-0.2021	1.0400	-7.0917	-16.4246	29.0094	25.5900 
754.788	0.1143	-0.2085	1.0615	-7.3059	-15.7928	28.7183	25.5900 
754.809	0.0791	-0.2148	1.0674	-7.8058	-15.2106	28.5205	25.5900 
754.828	0.1348	-0.0425	1.0332	-8.9264	-14.8810	28.5974	25.5800 
754.848	0.0435	0.3442	1.0889	-10.5414	-14.7711	29.0369	25.5900 
754.883	-0.0239	0.7813	1.8008	-14.5294	-14.6448	30.1904	25.5900 
754.888	0.2104	0.0952	2.0254	-23.6755	-14.6503	32.0197	25.6000 
754.908	0.6211	0.1118	1.5386	-37.6721	-14.8425	34.6014	25.5900 
754.928	0.4751	-1.1338	3.1416	-50.7953	-12.0355	34.6509	25.5600 
754.947	0.5879	0.6909	3.1743	-53.9484	-8.9484	32.8876	25.5600 
754.967	0.6084	0.5513	1.2471	-52.1576	-7.4762	32.8711	25.5700 
754.987	0.6582	0.2153	0.2661	-48.2904	-7.0752	33.3600	25.5800 
755.007	0.7773	0.1548	0.4126	-44.4727	-6.8225	33.1348	25.5500 
755.028	0.6938	0.0874	1.1196	-40.3583	-6.5149	31.9373	25.5600 
755.068	0.5093	0.0088	1.1836	-35.2441	-6.7017	30.5035	25.5400 
755.070	0.2505	-0.2271	0.9561	-29.3115	-7.7069	29.4489	25.5300 
755.087	0.0825	-0.3481	1.0488	-23.0658	-9.0308	28.6523	25.5400 
755.106	-0.0757	-0.5210	1.2817	-16.9958	-10.4810	28.0371	25.5500 
755.126	-0.0830	-0.5996	1.3228	-11.2115	-12.1399	27.6471	25.5500 
755.147	-0.0854	-0.6909	1.4429	-5.6305	-13.8702	27.2241	25.5500 
755.167	-0.1323	-0.7168	1.5649	-0.2527	-15.5566	26.5649	25.5400 
755.186	-0.2554	-0.8262	1.8945	4.8889	-17.1606	25.6476	25.5200 
755.206	-0.3569	-0.9746	1.9575	9.8602	-18.5065	24.6149	25.5100 
755.258	-0.4248	-1.2803	1.7217	14.6942	-19.4623	23.5876	25.5200 
755.261	-0.3862	-1.4126	1.4541	19.0997	-21.4508	24.4061	25.5400 
755.265	-0.2749	-1.6245	0.8760	22.8131	-23.9667	25.8014	25.5400 
755.286	-0.3569	-1.8706	0.5054	25.5322	-26.1090	26.8890	25.5200 
755.306	-0.8379	-2.2490	-0.1738	26.6803	-27.5482	27.7844	25.5100 
755.325	-0.9189	-2.2793	-0.5098	25.3949	-28.0701	29.2731	25.5100 
755.345	-0.2114	0.2925	0.6309	21.4563	-26.9110	31.6901	25.5200 
755.369	0.1616	0.2158	0.8643	17.1222	-24.3402	33.5303	25.5000 
755.386	1.0522	-2.3750	5.3169	10.6567	-23.2910	35.4529	25.5100 
755.405	-0.0913	-0.7476	2.5732	2.3346	-24.3237	37.0020	25.5200 
755.429	0.0620	-0.2017	1.2544	0.5878	-24.4501	37.0898	25.5400 
755.445	0.1665	-0.0352	1.0000	0.1868	-24.5050	37.0294	25.5400 
755.503	0.2119	-0.1060	1.0210	-0.1099	-24.6313	37.0239	25.5500 
755.505	0.1870	-0.1060	1.0273	-0.3845	-24.5599	37.0294	25.5400 
755.505	0.1558	-0.1035	1.0430	-0.7196	-24.3896	37.0514	25.5400 
755.524	0.1626	-0.1250	1.0425	-1.1591	-24.2358	37.0734	25.5400 
755.546	0.1689	-0.1118	1.0195	-1.4117	-24.0491	37.0569	25.5500 
755.564	0.1729	-0.1235	1.0293	-1.5765	-23.8898	37.0294	25.5500 
755.584	0.1616	-0.1201	1.0215	-1.7358	-23.7305	37.0020	25.5600 
755.604	0.1738	-0.1221	1.0200	-1.8237	-23.5767	36.9525	25.5400 
755.625	0.1753	-0.1265	1.0176	-1.8732	-23.4723	36.9031	25.5400 
755.644	0.1787	-0.1079	1.0000	-1.7963	-23.3789	36.8481	25.5500 
755.699	0.1807	-0.1035	1.0073	-1.6589	-23.2635	36.7932	25.5600 
755.701	0.1694	-0.1025	1.0103	-1.6589	-23.1152	36.7438	25.5400 
755.704	0.1738	-0.1099	1.0195	-1.7688	-22.9230	36.7053	25.5400 
755.724	0.1826	-0.1060	1.0068	-1.8896	-22.7307	36.6504	25.5500 
755.745	0.1865	-0.1118	1.0107	-2.0270	-22.5604	36.6064	25.5500 
755.764	0.1777	-0.1084	1.0059	-2.1368	-22.3792	36.5515	25.5500 
755.783	0.1836	-0.1035	1.0015	-2.2137	-22.1979	36.5076	25.5500 
755.803	0.1699	-0.1191	1.0225	-2.2852	-21.9946	36.4691	25.5500 
755.823	0.1660	-0.1157	1.0176	-2.2906	-21.7749	36.4197	25.5400 
755.843	0.1699	-0.1128	1.0146	-2.2083	-21.5936	36.3538	25.5500 
755.887	0.1777	-0.1074	1.0098	-2.0929	-21.4398	36.2659	25.5300 
755.889	0.1772	-0.1025	1.0098	-1.9940	-21.2750	36.1780	25.5300 
755.903	0.1694	-0.1001	1.0059	-1.9336	-21.0992	36.0846	25.5400 
755.923	0.1636	-0.1064	1.0146	-1.8896	-20.9180	35.9857	25.5400 
755.942	0.1621	-0.1001	1.0137	-1.8402	-20.7642	35.8539	25.5500 
755.964	0.1694	-0.0991	1.0166	-1.7578	-20.6433	35.7166	25.5500 
755.984	0.1743	-0.0977	1.0142	-1.6040	-20.5444	35.5792	25.5400 
756.002	0.1802	-0.0845	1.0024	-1.4722	-20.4565	35.4529	25.5400 
756.022	0.1748	-0.0859	1.0063	-1.4392	-20.3412	35.3375	25.5500 
756.046	0.1748	-0.0859	1.0068	-1.4667	-20.1819	35.2441	25.5400 
756.062	0.1738	-0.0869	1.0059	-1.5271	-20.0171	35.1672	25.5400 
756.082	0.1685	-0.0952	1.0200	-1.6260	-19.8688	35.0958	25.5400 
756.125	0.1704	-0.0952	1.0137	-1.6864	-19.7424	35.0189	25.5400 
756.127	0.1748	-0.0913	1.0093	-1.7194	-19.6271	34.9585	25.5300 
756.141	0.1777	-0.0884	1.0078	-1.7413	-19.5172	34.9036	25.5300 
756.161	0.1738	-0.0913	1.0117	-1.7688	-19.3909	34.8431	25.5400 
756.181	0.1704	-0.0908	1.0127	-1.8018	-19.2590	34.7937	25.5400 
756.202	0.1694	-0.0918	1.0107	-1.8457	-19.1217	34.7443	25.5300 
756.221	0.1729	-0.0903	1.0088	-1.8787	-18.9844	34.6948	25.5300 
756.242	0.1719	-0.0903	1.0098	-1.9336	-18.8470	34.6344	25.5400 
756.261	0.1753	-0.0928	1.0112	-1.9940	-18.7097	34.5795	25.5500 
756.317	0.1719	-0.0952	1.0156	-2.0544	-18.5724	34.5300	25.5400 
756.319	0.1685	-0.0952	1.0166	-2.1094	-18.4351	34.4696	25.5300 
756.321	0.1704	-0.0967	1.0117	-2.1423	-18.3087	34.3927	25.5400 
756.340	0.1709	-0.0918	1.0073	-2.1698	-18.1824	34.3213	25.5400 
756.360	0.1714	-0.0898	1.0059	-2.2028	-18.0450	34.2609	25.5400 
756.380	0.1699	-0.0962	1.0142	-2.2467	-17.9132	34.2059	25.5300 
756.402	0.1694	-0.0972	1.0127	-2.2906	-17.7759	34.1400	25.5400 
756.420	0.1685	-0.0972	1.0156	-2.3236	-17.6440	34.0686	25.5400 
756.441	0.1685	-0.0952	1.0132	-2.3346	-17.5177	34.0027	25.5500 
756.460	0.1689	-0.0923	1.0107	-2.3236	-17.4023	33.9368	25.5500 
756.504	0.1714	-0.0884	1.0078	-2.3126	-17.2925	33.8708	25.5400 
756.506	0.1724	-0.0884	1.0083	-2.3126	-17.1881	33.8104	25.5400 
756.520	0.1709	-0.0913	1.0117	-2.3401	-17.0728	33.7665	25.5600 
756.540	0.1675	-0.0918	1.0112	-2.3840	-16.9629	33.7225	25.5500 
756.559	0.1675	-0.0903	1.0107	-2.4225	-16.8585	33.6841	25.5500 
756.580	0.1675	-0.0889	1.0098	-2.4609	-16.7542	33.6401	25.5500 
756.599	0.1680	-0.0894	1.0107	-2.5104	-16.6608	33.6017	25.5300 
756.619	0.1670	-0.0938	1.0117	-2.5543	-16.5674	33.5687	25.5500 
756.640	0.1685	-0.0923	1.0137	-2.5983	-16.4795	33.5303	25.5400 
756.692	0.1689	-0.0952	1.0132	-2.6367	-16.3971	33.4918	25.5400 
756.694	0.1694	-0.0913	1.0093	-2.6697	-16.3037	33.4589	25.5500 
756.699	0.1685	-0.0903	1.0078	-2.7026	-16.2158	33.4204	25.5400 
756.719	0.1694	-0.0913	1.0093	-2.7466	-16.1169	33.3984	25.5200 
756.739	0.1670	-0.0923	1.0122	-2.7905	-16.0236	33.3710	25.5300 
756.758	0.1685	-0.0947	1.0151	-2.8235	-15.9412	33.3490	25.5600 
756.778	0.1694	-0.0952	1.0146	-2.8345	-15.8588	33.3325	25.5400 
756.798	0.1694	-0.0903	1.0078	-2.8180	-15.7819	33.2941	25.5400 
756.818	0.1694	-0.0894	1.0093	-2.8015	-15.6995	33.2556	25.5400 
756.838	0.1689	-0.0918	1.0142	-2.7905	-15.6116	33.2172	25.5500 
756.894	0.1685	-0.0918	1.0151	-2.7795	-15.5182	33.1842	25.5400 
756.901	0.1709	-0.0918	1.0146	-2.7576	-15.4303	33.1458	25.5400 
756.904	0.1689	-0.0894	1.0137	-2.7411	-15.3424	33.1018	25.5500 
756.918	0.1680	-0.0845	1.0103	-2.7191	-15.2545	33.0414	25.5300 
756.937	0.1680	-0.0869	1.0142	-2.7136	-15.1776	32.9865	25.5300 
756.957	0.1670	-0.0889	1.0186	-2.7191	-15.1007	32.9370	25.5500 
756.977	0.1685	-0.0879	1.0151	-2.7246	-15.0293	32.8931	25.5500 
756.997	0.1694	-0.0874	1.0151	-2.7411	-14.9524	32.8546	25.5400 
757.018	0.1689	-0.0859	1.0127	-2.7631	-14.8810	32.8107	25.5400 
757.037	0.1709	-0.0864	1.0122	-2.7905	-14.8041	32.7557	25.5400 
757.082	0.1694	-0.0879	1.0151	-2.8180	-14.7327	32.7118	25.5500 
757.086	0.1704	-0.0879	1.0132	-2.8290	-14.6667	32.6569	25.5500 
757.097	0.1680	-0.0869	1.0151	-2.8235	-14.6008	32.6019	25.5500 
757.116	0.1699	-0.0850	1.0088	-2.8015	-14.5459	32.5470	25.5500 
757.136	0.1689	-0.0845	1.0127	-2.7905	-14.4855	32.5031	25.5400 
757.156	0.1694	-0.0840	1.0137	-2.7905	-14.4196	32.4646	25.5500 
757.176	0.1704	-0.0854	1.0156	-2.7960	-14.3536	32.4316	25.5500 
757.196	0.1699	-0.0850	1.0142	-2.8015	-14.2767	32.3822	25.5500 
757.216	0.1699	-0.0825	1.0137	-2.8070	-14.2053	32.3383	25.5600 
757.236	0.1694	-0.0815	1.0093	-2.8125	-14.1394	32.2943	25.5500 
757.256	0.1685	-0.0815	1.0132	-2.8235	-14.0735	32.2504	25.5400 
757.276	0.1685	-0.0840	1.0156	-2.8400	-14.0076	32.2064	25.5300 
757.332	0.1699	-0.0835	1.0137	-2.8619	-13.9471	32.1570	25.5400 
757.336	0.1680	-0.0835	1.0127	-2.8894	-13.8812	32.1021	25.5600 
757.338	0.1694	-0.0835	1.0127	-2.9114	-13.8098	32.0636	25.5400 
757.355	0.1704	-0.0806	1.0107	-2.9388	-13.7329	32.0251	25.5200 
757.375	0.1709	-0.0845	1.0142	-2.9663	-13.6670	31.9977	25.5700 
757.395	0.1685	-0.0845	1.0146	-2.9938	-13.6011	31.9702	25.5400 
757.415	0.1694	-0.0845	1.0156	-3.0157	-13.5461	31.9427	25.5400 
757.435	0.1699	-0.0854	1.0151	-3.0267	-13.4967	31.9208	25.5400 
757.456	0.1699	-0.0811	1.0078	-3.0377	-13.4473	31.9043	25.5400 
757.475	0.1689	-0.0835	1.0122	-3.0542	-13.3978	31.8823	25.5700 
757.517	0.1699	-0.0840	1.0161	-3.0707	-13.3429	31.8494	25.5400 
757.519	0.1704	-0.0835	1.0176	-3.0872	-13.2880	31.8164	25.5500 
757.535	0.1689	-0.0820	1.0151	-3.1091	-13.2330	31.7780	25.5500 
757.558	0.1685	-0.0830	1.0122	-3.1366	-13.1781	31.7450	25.5500 
757.574	0.1724	-0.0801	1.0107	-3.1586	-13.1342	31.7065	25.5500 
757.594	0.1704	-0.0840	1.0142	-3.1915	-13.0902	31.6626	25.5600 
757.614	0.1704	-0.0859	1.0161	-3.2300	-13.0463	31.6351	25.5600 
757.634	0.1689	-0.0864	1.0127	-3.2629	-12.9968	31.6077	25.5700 
757.654	0.1680	-0.0859	1.0166	-3.2849	-12.9419	31.5747	25.5600 
757.704	0.1685	-0.0840	1.0112	-3.3069	-12.8815	31.5472	25.5500 
757.706	0.1689	-0.0825	1.0117	-3.3124	-12.8320	31.5143	25.5400 
757.714	0.1694	-0.0854	1.0132	-3.3179	-12.7826	31.4813	25.5500 
757.733	0.1714	-0.0854	1.0142	-3.3069	-12.7386	31.4703	25.5500 
757.753	0.1709	-0.0830	1.0142	-3.2794	-12.6947	31.4594	25.5700 
757.774	0.1699	-0.0801	1.0112	-3.2520	-12.6508	31.4484	25.5600 
757.793	0.1704	-0.0820	1.0132	-3.2190	-12.6068	31.4374	25.5400 
757.813	0.1699	-0.0806	1.0127	-3.1970	-12.5574	31.4154	25.5500 
757.833	0.1709	-0.0811	1.0132	-3.1750	-12.5079	31.3824	25.5600 
757.853	0.1694	-0.0806	1.0127	-3.1531	-12.4530	31.3550	25.5500 
757.894	0.1704	-0.0776	1.0117	-3.1421	-12.4036	31.3110	25.5500 
757.906	0.1689	-0.0776	1.0132	-3.1366	-12.3541	31.2671	25.5700 
757.915	0.1694	-0.0786	1.0137	-3.1421	-12.3102	31.2177	25.5600 
757.932	0.1689	-0.0791	1.0151	-3.1531	-12.2717	31.1682	25.5600 
757.952	0.1699	-0.0781	1.0117	-3.1641	-12.2278	31.1243	25.5600 
757.974	0.1699	-0.0757	1.0117	-3.1805	-12.1893	31.0968	25.5500 
757.993	0.1685	-0.0762	1.0103	-3.1970	-12.1454	31.0693	25.5600 
758.012	0.1689	-0.0791	1.0142	-3.2190	-12.1069	31.0419	25.5500 
758.032	0.1685	-0.0815	1.0146	-3.2355	-12.0740	31.0254	25.5500 
758.052	0.1689	-0.0811	1.0156	-3.2465	-12.0410	31.0144	25.5600 
758.072	0.1680	-0.0796	1.0156	-3.2520	-12.0135	30.9979	25.5700 
758.092	0.1699	-0.0776	1.0107	-3.2574	-11.9861	30.9814	25.5600 
758.131	0.1709	-0.0781	1.0137	-3.2629	-11.9531	30.9595	25.5500 
758.133	0.1689	-0.0791	1.0146	-3.2739	-11.9202	30.9320	25.5600 
758.152	0.1694	-0.0791	1.0161	-3.2904	-11.8817	30.9155	25.5600 
758.171	0.1699	-0.0786	1.0161	-3.3014	-11.8433	30.9045	25.5600 
758.192	0.1709	-0.0786	1.0151	-3.3179	-11.7993	30.8990	25.5700 
758.211	0.1694	-0.0791	1.0137	-3.3344	-11.7554	30.8826	25.5700 
758.231	0.1714	-0.0771	1.0122	-3.3508	-11.7114	30.8661	25.5500 
758.251	0.1685	-0.0801	1.0151	-3.3728	-11.6675	30.8441	25.5600 
758.272	0.1675	-0.0796	1.0137	-3.3893	-11.6235	30.8167	25.5700 
758.317	0.1689	-0.0806	1.0146	-3.4058	-11.5796	30.7892	25.5800 
758.319	0.1685	-0.0791	1.0156	-3.4113	-11.5356	30.7562	25.5600 
758.330	0.1675	-0.0801	1.0171	-3.4222	-11.4862	30.7343	25.5400 
758.351	0.1689	-0.0801	1.0156	-3.4222	-11.4478	30.7068	25.5600 
758.370	0.1675	-0.0796	1.0190	-3.4222	-11.4093	30.6738	25.5500 
758.390	0.1689	-0.0815	1.0176	-3.4113	-11.3708	30.6464	25.5600 
758.410	0.1685	-0.0796	1.0186	-3.4003	-11.3324	30.6134	25.5600 
758.431	0.1689	-0.0786	1.0151	-3.3783	-11.2939	30.5804	25.5600 
758.451	0.1665	-0.0752	1.0151	-3.3563	-11.2555	30.5475	25.5800 
758.506	0.1675	-0.0781	1.0166	-3.3398	-11.2170	30.4980	25.5700 
758.510	0.1680	-0.0781	1.0156	-3.3234	-11.1786	30.4596	25.5600 
758.512	0.1699	-0.0728	1.0083	-3.3069	-11.1346	30.4211	25.5600 
758.530	0.1724	-0.0811	1.0171	-3.2849	-11.0742	30.3882	25.5700 
758.550	0.1636	-0.0703	1.0171	-3.2355	-10.9918	30.3607	25.5700 
758.569	0.1650	-0.0703	1.0146	-3.1860	-10.9204	30.3113	25.5700 
758.589	0.1650	-0.0645	1.0059	-3.1421	-10.8710	30.2618	25.5700 
758.609	0.1670	-0.0649	1.0083	-3.1146	-10.8325	30.2289	25.5700 
758.629	0.1641	-0.0703	1.0146	-3.1146	-10.8051	30.1959	25.5700 
758.649	0.1621	-0.0718	1.0171	-3.1256	-10.7776	30.1630	25.5600 
758.669	0.1660	-0.0703	1.0146	-3.1311	-10.7666	30.1245	25.5600 
758.689	0.1665	-0.0693	1.0103	-3.1366	-10.7556	30.1025	25.5500 
758.708	0.1655	-0.0723	1.0186	-3.1421	-10.7446	30.0861	25.5500 
758.748	0.1646	-0.0718	1.0195	-3.1531	-10.7281	30.0586	25.5700 
758.750	0.1675	-0.0708	1.0122	-3.1531	-10.7172	30.0311	25.5600 
758.768	0.1685	-0.0723	1.0146	-3.1531	-10.7007	30.0037	25.5700 
758.788	0.1665	-0.0728	1.0166	-3.1586	-10.6842	29.9762	25.5700 
758.808	0.1675	-0.0713	1.0190	-3.1696	-10.6622	29.9542	25.5700 
758.828	0.1680	-0.0713	1.0146	-3.1805	-10.6403	29.9323	25.5700 
758.848	0.1680	-0.0713	1.0181	-3.1970	-10.6183	29.9158	25.5800 
758.869	0.1680	-0.0693	1.0137	-3.2135	-10.5963	29.8993	25.5800 
758.888	0.1670	-0.0732	1.0151	-3.2410	-10.5798	29.8883	25.5700 
758.959	0.1670	-0.0732	1.0146	-3.2629	-10.5634	29.8828	25.5800 
758.961	0.1660	-0.0747	1.0186	-3.2959	-10.5469	29.8773	25.5700 
758.961	0.1670	-0.0752	1.0151	-3.3179	-10.5359	29.8663	25.5900 
758.967	0.1685	-0.0742	1.0161	-3.3344	-10.5194	29.8444	25.5900 
758.987	0.1685	-0.0718	1.0107	-3.3453	-10.5084	29.8334	25.5700 
759.007	0.1670	-0.0723	1.0156	-3.3673	-10.4919	29.8224	25.5700 
759.026	0.1670	-0.0703	1.0122	-3.3893	-10.4810	29.8004	25.5700 
759.047	0.1650	-0.0708	1.0132	-3.4113	-10.4645	29.7675	25.5600 
759.067	0.1685	-0.0747	1.0171	-3.4387	-10.4535	29.7345	25.5600 
759.087	0.1694	-0.0752	1.0151	-3.4607	-10.4425	29.7125	25.5800 
759.106	0.1675	-0.0762	1.0151	-3.4882	-10.4205	29.6906	25.5800 
759.148	0.1670	-0.0747	1.0132	-3.5156	-10.3931	29.6796	25.5700 
759.156	0.1670	-0.0757	1.0151	-3.5431	-10.3656	29.6741	25.5700 
759.166	0.1670	-0.0757	1.0146	-3.5706	-10.3381	29.6686	25.5700 
759.186	0.1675	-0.0771	1.0156	-3.5980	-10.3162	29.6741	25.5500 
759.206	0.1675	-0.0776	1.0127	-3.6090	-10.2887	29.6741	25.5700 
759.226	0.1660	-0.0757	1.0137	-3.6255	-10.2612	29.6741	25.5600 
759.246	0.1675	-0.0781	1.0186	-3.6365	-10.2393	29.6686	25.5700 
759.266	0.1660	-0.0776	1.0176	-3.6420	-10.2118	29.6576	25.5700 
759.286	0.1670	-0.0752	1.0166	-3.6420	-10.1898	29.6356	25.5800 
759.338	0.1660	-0.0747	1.0156	-3.6420	-10.1678	29.6191	25.5800 
759.340	0.1665	-0.0762	1.0151	-3.6475	-10.1514	29.6082	25.5700 
759.346	0.1650	-0.0762	1.0151	-3.6530	-10.1294	29.5917	25.5800 
759.368	0.1655	-0.0781	1.0161	-3.6584	-10.1184	29.5697	25.5900 
759.385	0.1660	-0.0752	1.0132	-3.6584	-10.1019	29.5477	25.5700 
759.405	0.1685	-0.0757	1.0127	-3.6694	-10.0909	29.5422	25.5800 
759.425	0.1675	-0.0762	1.0151	-3.6859	-10.0745	29.5258	25.5700 
759.445	0.1680	-0.0771	1.0166	-3.7024	-10.0580	29.5038	25.5700 
759.465	0.1685	-0.0767	1.0146	-3.7189	-10.0415	29.4928	25.5800 
759.487	0.1694	-0.0762	1.0151	-3.7299	-10.0305	29.4818	25.5700 
759.531	0.1655	-0.0771	1.0156	-3.7354	-10.0195	29.4763	25.5700 
759.538	0.1680	-0.0757	1.0098	-3.7354	-10.0031	29.4708	25.5800 
759.545	0.1680	-0.0767	1.0132	-3.7408	-9.9866	29.4653	25.5800 
759.564	0.1655	-0.0776	1.0156	-3.7518	-9.9701	29.4489	25.5900 
759.584	0.1680	-0.0762	1.0132	-3.7573	-9.9591	29.4379	25.6000 
759.604	0.1665	-0.0781	1.0142	-3.7628	-9.9426	29.4379	25.5800 
759.624	0.1675	-0.0752	1.0156	-3.7628	-9.9261	29.4269	25.5900 
759.644	0.1685	-0.0742	1.0146	-3.7573	-9.9152	29.4159	25.5900 
759.665	0.1689	-0.0747	1.0146	-3.7573	-9.9042	29.4049	25.5700 
759.727	0.1670	-0.0771	1.0171	-3.7628	-9.8877	29.3884	25.5900 
759.733	0.1675	-0.0762	1.0166	-3.7683	-9.8767	29.3719	25.5800 
759.733	0.1685	-0.0776	1.0161	-3.7738	-9.8657	29.3665	25.5900 
759.744	0.1689	-0.0742	1.0146	-3.7793	-9.8492	29.3719	25.6000 
759.764	0.1680	-0.0762	1.0117	-3.7958	-9.8273	29.3719	25.5700 
759.783	0.1660	-0.0791	1.0156	-3.8177	-9.8108	29.3610	25.5800 
759.805	0.1665	-0.0786	1.0176	-3.8397	-9.7998	29.3445	25.5900 
759.824	0.1665	-0.0781	1.0156	-3.8562	-9.7943	29.3335	25.5900 
759.843	0.1680	-0.0786	1.0137	-3.8672	-9.7833	29.3280	25.6000 
759.863	0.1685	-0.0776	1.0132	-3.8727	-9.7778	29.3225	25.5800 
759.917	0.1665	-0.0786	1.0166	-3.8892	-9.7668	29.3115	25.6000 
759.922	0.1689	-0.0801	1.0146	-3.9056	-9.7559	29.2950	25.5900 
759.926	0.1685	-0.0786	1.0151	-3.9166	-9.7449	29.2841	25.5900 
759.942	0.1685	-0.0776	1.0142	-3.9276	-9.7394	29.2786	25.5900 
759.962	0.1675	-0.0796	1.0146	-3.9386	-9.7284	29.2731	25.5800 
760.008	0.1675	-0.0791	1.0142	-3.9496	-9.7229	29.2731	25.5900 
760.011	0.1680	-0.0806	1.0142	-3.9551	-9.7119	29.2731	25.5700 
760.022	0.1680	-0.0801	1.0156	-3.9661	-9.6954	29.2731	25.5900 
760.041	0.1689	-0.0776	1.0142	-3.9606	-9.6844	29.2731	25.6000 
760.062	0.1694	-0.0767	1.0137	-3.9606	-9.6680	29.2676	25.6000 
760.082	0.1680	-0.0771	1.0156	-3.9606	-9.6570	29.2621	25.6100 
760.101	0.1675	-0.0762	1.0156	-3.9606	-9.6405	29.2511	25.6100 
760.148	0.1675	-0.0806	1.0142	-3.9606	-9.6240	29.2346	25.6000 
760.150	0.1680	-0.0786	1.0151	-3.9551	-9.6130	29.2181	25.5700 
760.161	0.1689	-0.0776	1.0142	-3.9441	-9.6075	29.2072	25.5900 
760.181	0.1694	-0.0771	1.0142	-3.9276	-9.5966	29.2072	25.5800 
760.201	0.1670	-0.0767	1.0122	-3.9221	-9.5856	29.2017	25.5900 
760.221	0.1680	-0.0762	1.0151	-3.9166	-9.5746	29.1907	25.6000 
760.241	0.1680	-0.0762	1.0142	-3.9111	-9.5636	29.1852	25.5900 
760.261	0.1680	-0.0771	1.0146	-3.9111	-9.5526	29.1742	25.6000 
760.285	0.1670	-0.0757	1.0151	-3.9166	-9.5416	29.1687	25.6000 
760.300	0.1685	-0.0757	1.0146	-3.9166	-9.5306	29.1577	25.6200 
760.339	0.1675	-0.0771	1.0156	-3.9221	-9.5197	29.1522	25.6200 
760.341	0.1680	-0.0771	1.0142	-3.9276	-9.5142	29.1357	25.5900 
760.360	0.1670	-0.0757	1.0166	-3.9386	-9.5032	29.1193	25.5900 
760.380	0.1685	-0.0767	1.0156	-3.9496	-9.4922	29.1083	25.5900 
760.400	0.1680	-0.0767	1.0142	-3.9661	-9.4867	29.1083	25.5800 
760.420	0.1675	-0.0786	1.0166	-3.9716	-9.4757	29.1028	25.6100 
760.440	0.1689	-0.0767	1.0166	-3.9825	-9.4702	29.0973	25.6000 
760.460	0.1685	-0.0757	1.0161	-3.9880	-9.4647	29.0918	25.6000 
760.480	0.1689	-0.0781	1.0161	-3.9935	-9.4592	29.0918	25.6000 
760.501	0.1689	-0.0781	1.0161	-3.9935	-9.4482	29.0973	25.5900 
760.520	0.1670	-0.0776	1.0171	-3.9990	-9.4373	29.1028	25.6000 
760.540	0.1694	-0.0771	1.0156	-3.9990	-9.4208	29.1028	25.6100 
760.579	0.1699	-0.0781	1.0142	-3.9990	-9.4098	29.0973	25.5800 
760.581	0.1680	-0.0781	1.0161	-3.9990	-9.4043	29.0918	25.6000 
760.599	0.1680	-0.0767	1.0171	-3.9935	-9.3933	29.0863	25.5900 
760.619	0.1680	-0.0791	1.0151	-3.9990	-9.3823	29.0863	25.6000 
760.638	0.1689	-0.0776	1.0151	-3.9990	-9.3768	29.0863	25.6100 
760.659	0.1680	-0.0762	1.0156	-4.0045	-9.3658	29.1028	25.6000 
760.679	0.1680	-0.0771	1.0132	-4.0155	-9.3549	29.1193	25.5900 
760.699	0.1675	-0.0771	1.0156	-4.0265	-9.3439	29.1302	25.6000 
760.718	0.1670	-0.0781	1.0146	-4.0320	-9.3384	29.1357	25.6000 
760.778	0.1680	-0.0771	1.0166	-4.0375	-9.3329	29.1357	25.6100 
760.781	0.1685	-0.0771	1.0137	-4.0430	-9.3274	29.1302	25.6100 
760.781	0.1680	-0.0771	1.0137	-4.0485	-9.3219	29.1302	25.6200 
760.798	0.1680	-0.0776	1.0156	-4.0649	-9.3164	29.1248	25.6200 
760.818	0.1685	-0.0757	1.0142	-4.0759	-9.3054	29.1138	25.6100 
760.838	0.1680	-0.0771	1.0161	-4.0869	-9.2999	29.1028	25.6100 
760.858	0.1680	-0.0771	1.0146	-4.0924	-9.2999	29.0918	25.5900 
760.878	0.1675	-0.0781	1.0156	-4.1034	-9.2944	29.0808	25.6200 
760.898	0.1680	-0.0791	1.0166	-4.1144	-9.2889	29.0698	25.6100 
760.918	0.1680	-0.0791	1.0156	-4.1254	-9.2780	29.0643	25.6000 
760.973	0.1680	-0.0771	1.0161	-4.1309	-9.2725	29.0643	25.6300 
760.976	0.1675	-0.0771	1.0151	-4.1309	-9.2615	29.0643	25.6000 
760.979	0.1685	-0.0771	1.0127	-4.1309	-9.2560	29.0753	25.6100 
760.997	0.1675	-0.0781	1.0151	-4.1309	-9.2505	29.0808	25.6100 
761.017	0.1680	-0.0791	1.0127	-4.1364	-9.2395	29.0918	25.5900 
761.038	0.1680	-0.0781	1.0161	-4.1309	-9.2340	29.0863	25.6000 
761.056	0.1685	-0.0796	1.0151	-4.1254	-9.2285	29.0863	25.6100 
761.076	0.1689	-0.0781	1.0127	-4.1254	-9.2175	29.0863	25.6100 
761.097	0.1689	-0.0811	1.0161	-4.1199	-9.2120	29.0918	25.5900 
761.119	0.1626	-0.0781	1.0205	-4.1144	-9.2120	29.0973	25.6200 
761.169	0.1689	-0.0742	1.0190	-4.0924	-9.2285	29.0918	25.6200 
761.173	0.1709	-0.0771	1.0127	-4.0704	-9.2450	29.0918	25.6200 
761.176	0.1689	-0.0762	1.0117	-4.0540	-9.2615	29.0863	25.6000 
761.196	0.1699	-0.0757	1.0142	-4.0320	-9.2834	29.0753	25.6000 
761.216	0.1699	-0.0757	1.0142	-4.0155	-9.2999	29.0588	25.6300