StartTime: 2018-11-22 16:32:19.868
Time(s)	ax(g)	ay(g)	az(g)	AngleX(deg)	AngleY(deg)	AngleZ(deg)	T(Â°) 
808.027	0.1538	-0.0747	1.0176	-3.9825	-7.8333	12.0355	25.3900 
808.084	0.1548	-0.0728	1.0166	-3.9825	-7.8387	12.0355	25.4000 
808.088	0.1548	-0.0732	1.0161	-3.9825	-7.8387	12.0355	25.3900 
808.088	0.1528	-0.0737	1.0176	-3.9825	-7.8387	12.0410	25.3800 
808.104	0.1528	-0.0742	1.0176	-3.9880	-7.8387	12.0410	25.3700 
808.124	0.1533	-0.0737	1.0176	-3.9880	-7.8387	12.0355	25.3800 
808.144	0.1563	-0.0737	1.0156	-3.9880	-7.8387	12.0355	25.3800 
808.164	0.1538	-0.0728	1.0181	-3.9825	-7.8387	12.0355	25.4000 
808.183	0.1523	-0.0732	1.0190	-3.9771	-7.8387	12.0355	25.4000 
808.204	0.1523	-0.0732	1.0176	-3.9661	-7.8333	12.0300	25.4000 
808.224	0.1543	-0.0747	1.0181	-3.9606	-7.8333	12.0410	25.4000 
808.277	0.1582	-0.0742	1.0176	-3.9606	-7.8333	12.0520	25.3900 
808.279	0.1572	-0.0771	1.0195	-3.9661	-7.8223	12.0630	25.3900 
808.283	0.1646	-0.0854	1.0273	-3.9661	-7.8003	12.0850	25.4000 
808.303	0.1733	-0.0903	1.0317	-3.9551	-7.7509	12.1124	25.4000 
808.323	0.1860	-0.0835	1.0288	-3.9111	-7.6685	12.1509	25.3900 
808.343	0.1636	-0.0757	1.0288	-3.8782	-7.5806	12.2058	25.4000 
808.363	0.1743	-0.1025	1.0479	-3.9276	-7.5476	12.3157	25.4000 
808.383	0.2070	-0.1226	1.0581	-4.0485	-7.5751	12.4915	25.4000 
808.407	0.3315	-0.1270	1.0161	-4.1748	-7.6794	12.7002	25.4000 
808.423	0.2539	-0.0903	1.0068	-4.1418	-7.7728	12.7222	25.4100 
808.443	0.1865	-0.0576	1.0381	-4.0320	-7.7618	12.5079	25.4100 
808.463	-0.0112	-0.0488	1.0835	-3.8782	-7.7014	12.0959	25.4200 
808.516	-0.0073	-0.0112	0.9761	-3.5870	-7.6575	11.6565	25.4100 
808.520	-0.0103	0.0220	0.9009	-3.3234	-7.7069	11.3324	25.4200 
808.524	0.0503	0.0508	0.7856	-3.2025	-7.8168	11.1346	25.4200 
808.542	0.1333	-0.0122	0.8833	-3.3234	-7.9706	11.1292	25.4100 
808.562	0.1445	-0.0171	0.8892	-3.6639	-8.0804	11.1896	25.4000 
808.582	0.2285	-0.1069	1.0273	-3.9441	-8.0914	11.2115	25.4100 
808.602	0.1729	-0.0708	1.0264	-3.9001	-7.9761	11.1127	25.4000 
808.621	0.1558	-0.0796	1.0430	-3.8727	-7.8882	11.0248	25.3900 
808.644	0.1597	-0.0859	1.0464	-3.7738	-7.7948	10.9314	25.4000 
808.662	0.1724	-0.0854	1.0254	-3.5760	-7.7069	10.8435	25.4100 
808.715	0.1646	-0.0723	1.0225	-3.4277	-7.6630	10.7721	25.4100 
808.717	0.1641	-0.0737	1.0278	-3.3344	-7.6520	10.7336	25.4100 
808.721	0.1631	-0.0674	1.0205	-3.2794	-7.6575	10.7117	25.4000 
808.741	0.1499	-0.0669	1.0229	-3.2794	-7.6740	10.6952	25.4200 
808.761	0.1489	-0.0610	1.0234	-3.2355	-7.6959	10.6622	25.4100 
808.780	0.1563	-0.0596	1.0137	-3.1805	-7.7399	10.6458	25.4100 
808.801	0.1582	-0.0576	1.0156	-3.1421	-7.7783	10.6403	25.4200 
808.821	0.1646	-0.0654	1.0215	-3.1091	-7.8003	10.6403	25.4100 
808.841	0.1484	-0.0630	1.0264	-3.0981	-7.8113	10.6348	25.4200 
808.860	0.1514	-0.0610	1.0234	-3.0762	-7.8278	10.6073	25.4300 
808.903	0.1479	-0.0513	1.0112	-3.0157	-7.8662	10.5798	25.4100 
808.906	0.1548	-0.0479	1.0083	-2.9718	-7.9376	10.5469	25.4100 
808.920	0.1563	-0.0620	1.0249	-2.9443	-8.0310	10.5249	25.4200 
808.940	0.1587	-0.0532	1.0195	-2.8949	-8.1134	10.5084	25.4100 
808.960	0.1538	-0.0386	1.0049	-2.8510	-8.1683	10.4810	25.4100 
808.980	0.1538	-0.0361	0.9966	-2.8729	-8.1958	10.4535	25.4100 
809.000	0.1572	-0.0376	1.0059	-2.9773	-8.1958	10.4370	25.4200 
809.020	0.1509	-0.0615	1.0225	-3.1201	-8.1628	10.4370	25.4100 
809.040	0.1694	-0.0703	1.0200	-3.2410	-8.1189	10.4260	25.4100 
809.093	0.1729	-0.0669	1.0229	-3.3398	-8.0530	10.4041	25.4200 
809.096	0.1567	-0.0581	1.0151	-3.4387	-7.9651	10.3821	25.4300 
809.100	0.1704	-0.0410	0.9941	-3.5541	-7.8497	10.3766	25.4200 
809.119	0.1489	-0.0830	1.0298	-3.7518	-7.7454	10.4041	25.4200 
809.139	0.1426	-0.0894	1.0352	-3.9441	-7.6685	10.4315	25.4000 
809.159	0.1470	-0.0947	1.0361	-4.0814	-7.6245	10.4370	25.4100 
809.179	0.1572	-0.0864	1.0200	-4.1583	-7.5970	10.4425	25.4100 
809.199	0.1514	-0.0801	1.0166	-4.1473	-7.5861	10.4590	25.4200 
809.218	0.1421	-0.0835	1.0273	-4.0924	-7.5696	10.4755	25.4100 
809.239	0.1460	-0.0820	1.0293	-4.0100	-7.5476	10.4755	25.4100 
809.259	0.1494	-0.0737	1.0156	-3.9056	-7.5201	10.4590	25.4200 
809.278	0.1553	-0.0596	0.9995	-3.7903	-7.4872	10.4315	25.4200 
809.333	0.1475	-0.0615	1.0083	-3.7408	-7.4377	10.4260	25.4300 
809.335	0.1450	-0.0649	1.0132	-3.7408	-7.3938	10.4370	25.4300 
809.338	0.1431	-0.0625	1.0122	-3.7573	-7.3553	10.4590	25.4100 
809.357	0.1509	-0.0591	1.0098	-3.7683	-7.3279	10.4755	25.4200 
809.377	0.1567	-0.0464	0.9941	-3.8013	-7.3114	10.5194	25.4100 
809.397	0.1553	-0.0566	1.0103	-3.9001	-7.2894	10.5963	25.4200 
809.418	0.1519	-0.0693	1.0132	-4.1089	-7.2455	10.6952	25.4100 
809.437	0.1406	-0.0732	1.0151	-4.4000	-7.1851	10.8215	25.4200 
809.458	0.1338	-0.0786	1.0107	-4.7681	-7.1082	10.9314	25.4000 
809.477	0.1348	-0.0903	1.0181	-5.1636	-7.0093	11.0358	25.4100 
809.524	0.1226	-0.0708	0.9922	-5.6305	-6.8555	11.1786	25.4200 
809.526	0.1313	-0.0703	0.9888	-6.1743	-6.5973	11.3818	25.4200 
809.537	0.1123	-0.0879	1.0059	-6.9598	-6.2018	11.5796	25.4100 
809.557	0.0801	-0.1440	1.0366	-7.9871	-5.7184	11.7279	25.4200 
809.580	0.0923	-0.1699	1.0332	-9.1791	-5.1855	11.7664	25.4200 
809.597	0.0996	-0.1987	1.0288	-10.4150	-4.6252	11.7059	25.4100 
809.617	0.0938	-0.2114	1.0327	-11.4587	-3.9771	11.5247	25.4200 
809.637	0.0889	-0.2271	1.0439	-12.2443	-3.3014	11.2610	25.4300 
809.656	0.0762	-0.2397	1.0273	-13.0133	-2.6697	10.9424	25.4300 
809.676	0.0835	-0.2319	1.0313	-13.8593	-2.0764	10.6128	25.4400 
809.721	0.0801	-0.2480	1.0313	-14.9139	-1.5051	10.3381	25.4400 
809.725	0.1250	-0.2100	1.0244	-16.3751	-1.0437	10.2777	25.4400 
809.736	0.1626	-0.1206	1.0874	-18.2922	-0.6812	10.5359	25.4400 
809.756	0.0972	0.1489	1.4722	-21.2366	-0.1758	11.2885	25.4500 
809.776	0.2817	-0.0845	1.6655	-27.2296	0.7196	12.5793	25.4500 
809.796	0.6338	-0.2168	1.4922	-35.5737	2.8784	13.8373	25.4400 
809.816	0.3926	-0.0742	1.4893	-44.2310	7.3828	13.9471	25.4500 
809.837	0.8384	-0.0874	3.4790	-49.5319	11.4752	12.1509	25.4300 
809.856	1.0781	0.3281	1.3857	-48.3563	11.0962	12.4365	25.4300 
809.908	0.5815	0.2358	0.5034	-45.7086	9.5416	12.0959	25.4300 
809.910	0.3364	0.2197	0.8535	-43.1323	8.0475	10.8984	25.4200 
809.915	0.1367	0.1157	1.1826	-40.0616	6.4819	9.7668	25.4200 
809.935	0.0337	0.0156	1.1030	-35.8429	4.8615	8.8385	25.4200 
809.955	-0.1382	-0.1089	0.8076	-31.0858	3.4113	8.0090	25.4100 
809.975	-0.2217	-0.1875	0.7583	-26.3617	2.2028	7.3004	25.4200 
809.994	-0.2085	-0.2329	1.0405	-21.8079	1.1810	6.9543	25.4200 
810.015	-0.1152	-0.2568	1.2612	-17.4518	0.2307	6.8445	25.4200 
810.035	-0.0610	-0.2837	1.4233	-13.0353	-0.7251	6.8225	25.4200 
810.055	-0.0820	-0.3120	1.4277	-8.5309	-1.7633	6.7291	25.4100 
810.099	0.0171	-0.4004	1.3838	-4.1309	-2.9004	6.6193	25.4100 
810.102	0.1440	-0.4336	1.3555	-0.0385	-4.0649	6.4380	25.4000 
810.114	0.2344	-0.4185	1.3945	3.6090	-5.2405	5.9711	25.4100 
810.134	0.2349	-0.3950	1.4883	6.9873	-6.3611	5.1086	25.4100 
810.154	0.1865	-0.3789	1.4937	10.2063	-7.3499	3.7958	25.4000 
810.174	0.1348	-0.3955	1.3857	13.3374	-8.2013	2.2083	25.3900 
810.194	-0.0156	-0.4370	1.2144	16.2762	-8.9758	0.1978	25.4000 
810.214	-0.0820	-0.4751	1.1455	18.9789	-9.5746	-2.2467	25.4000 
810.234	-0.2373	-0.5542	0.9800	21.3904	-9.5966	-4.9878	25.4100 
810.254	-0.2891	-0.6270	0.9346	23.4393	-9.2120	-7.5476	25.4100 
810.273	-0.3398	-0.7939	0.9341	25.0653	-8.5748	-9.7064	25.4000 
810.294	-0.4502	-0.9219	0.6807	26.4276	-7.6630	-11.3654	25.4100 
810.343	-0.4600	-1.1230	0.5815	27.1582	-6.6028	-12.3376	25.4000 
810.345	-0.3608	-1.1807	0.1860	27.0154	-5.3778	-12.5079	25.4100 
810.353	-0.2598	-0.8296	0.0654	24.8730	-3.1970	-11.3763	25.3800 
810.373	0.4517	0.5786	1.0122	21.9122	-1.6644	-9.1022	25.3800 
810.393	0.8071	-0.2617	1.2441	18.2922	-0.9668	-6.5149	25.3600 
810.412	-0.3345	-0.0723	1.8911	14.5459	-0.4834	-5.6964	25.3400 
810.433	0.7393	-0.1890	1.7490	10.8820	-0.6537	-5.2460	25.3600 
810.452	0.2397	-0.6040	1.8936	7.7179	-0.9393	-4.7571	25.4000 
810.475	0.0259	-0.0713	1.3018	5.3833	-1.5106	-4.8944	25.4000 
810.494	0.0264	-0.0361	1.3418	3.3838	-2.5488	-4.8779	25.4200 
810.529	0.1201	-0.0591	1.1631	2.4445	-3.0707	-4.8340	25.4300 
810.533	0.1299	-0.0493	1.1128	2.0929	-3.2794	-4.8175	25.4000 
810.552	0.1230	-0.0146	1.0264	2.0709	-3.4277	-4.8010	25.4200 
810.572	0.1382	-0.0068	1.0098	2.1643	-3.6035	-4.7955	25.4200 
810.592	0.1484	0.0039	0.9917	2.1918	-3.8397	-4.7791	25.4300 
810.612	0.1436	0.0005	0.9951	2.1478	-4.0485	-4.7736	25.4100 
810.632	0.1577	-0.0073	0.9976	1.9501	-4.3176	-4.7900	25.4500 
810.652	0.1968	-0.0210	0.9858	1.6205	-4.7021	-4.7626	25.4300 
810.672	0.2080	-0.0405	0.9878	1.2909	-5.0537	-4.6527	25.4500 
810.722	0.1982	-0.0259	0.9766	0.9998	-5.1910	-4.5209	25.4300 
810.724	0.2026	-0.0459	1.0015	0.5493	-5.1251	-4.3781	25.4400 
810.731	0.1851	-0.0508	1.0127	0.0824	-4.9438	-4.2297	25.4400 
810.751	0.2134	-0.0566	1.0068	-0.2692	-4.7571	-4.0210	25.4300 
810.771	0.2041	-0.0786	1.0288	-0.5768	-4.5758	-3.7463	25.4400 
810.791	0.1470	-0.0684	1.0366	-0.8844	-4.3231	-3.4717	25.4400 
810.810	0.1440	-0.0562	1.0132	-1.2305	-4.1309	-3.2025	25.4300 
810.831	0.1377	-0.0415	1.0024	-1.6150	-4.0210	-2.9004	25.4300 
810.851	0.1411	-0.0718	1.0039	-2.2247	-3.9276	-2.5763	25.4400 
810.871	0.1436	-0.1372	1.0313	-3.0322	-3.7793	-2.2083	25.4400 
810.912	0.1523	-0.0864	0.9878	-3.8562	-3.4222	-1.8842	25.4300 
810.916	0.0947	-0.1304	1.0298	-4.9384	-2.8619	-1.5820	25.4300 
810.930	0.0913	-0.1646	1.0308	-6.1963	-2.1973	-1.3568	25.4500 
810.951	0.0864	-0.1904	1.0522	-7.5696	-1.5216	-1.2524	25.4400 
810.970	0.0801	-0.2080	1.0259	-8.7836	-0.8899	-1.3074	25.4400 
810.990	0.0938	-0.2510	1.0513	-9.6185	-0.2856	-1.5106	25.4300 
811.011	0.0952	-0.2197	1.0566	-10.3931	0.2197	-1.7194	25.4500 
811.030	0.0815	-0.2017	1.0693	-11.4532	0.6866	-1.8951	25.4300 
811.051	0.1118	-0.2095	1.0547	-12.9694	1.1261	-1.9446	25.4500 
811.070	0.1533	-0.0703	1.0840	-15.1337	1.4502	-1.6479	25.4500 
811.089	0.0757	0.1758	1.4619	-18.3032	1.7468	-0.6702	25.4800 
811.109	0.1060	0.1338	1.7842	-24.5599	2.0380	1.2030	25.4700 
811.153	0.6899	0.0342	1.8091	-34.6124	2.9114	3.2849	25.4500 
811.155	0.3984	0.1035	1.8062	-46.2085	5.5701	4.4879	25.4500 
811.169	0.9155	0.4209	4.2344	-53.0640	9.2340	3.3398	25.4400 
811.189	1.2344	0.6230	1.7632	-52.6190	10.1184	3.6749	25.4400 
811.209	0.8223	0.4165	0.5459	-49.3231	9.5032	3.2245	25.4100 
811.229	0.5547	0.3877	0.9204	-45.7965	8.6188	1.7358	25.4400 
811.249	0.2227	0.2813	1.2251	-41.7975	7.3553	0.2307	25.4400 
811.269	0.0791	0.1333	1.1992	-37.0844	5.8997	-0.9668	25.4200 
811.291	-0.1768	-0.0420	1.0405	-31.2781	4.5593	-1.9940	25.4300 
811.341	-0.2808	-0.0850	1.0400	-25.1917	3.4662	-2.8180	25.4300 
811.344	-0.3716	-0.1421	1.3574	-19.4348	2.5488	-3.1531	25.4200 
811.348	-0.3516	-0.2490	1.6025	-13.7494	1.6315	-3.0267	25.4100 
811.371	-0.1416	-0.4146	1.6675	-7.8278	0.4999	-2.5323	25.4000 
811.388	-0.0439	-0.5195	1.6440	-1.9940	-0.7690	-2.2632	25.4100 
811.408	-0.0225	-0.6318	1.6812	3.5156	-2.0215	-2.6532	25.4000 
811.428	0.0190	-0.7520	1.6567	8.6517	-3.0103	-3.4827	25.3900 
811.448	-0.0361	-0.9116	1.7808	13.3978	-3.6035	-4.5648	25.4000 
811.468	-0.1738	-0.9824	1.6890	17.9297	-3.9166	-6.0315	25.4000 
811.487	-0.1899	-1.0957	1.4087	22.4506	-3.9935	-7.9431	25.3900 
811.535	-0.2329	-1.2451	1.0425	26.7023	-3.7903	-9.5251	25.3900 
811.538	-0.0933	-1.5820	0.6831	30.1355	-3.5266	-10.5414	25.3900 
811.547	-0.0117	-1.8350	0.5288	32.5909	-3.2849	-11.4587	25.4000 
811.567	-0.2275	-2.1836	0.2007	33.9862	-2.6202	-12.4695	25.4000 
811.587	-0.2158	-2.0420	0.2773	33.9752	-1.5106	-13.3154	25.4000 
811.607	0.1333	0.1196	0.3770	31.6132	-0.0824	-12.8595	25.3800 
811.627	0.6724	0.6484	-0.1372	28.3557	0.8405	-10.7281	25.3800 
811.647	-0.3936	-0.2632	1.3594	22.9175	2.4225	-8.9154	25.3400 
811.667	-0.0356	-0.2285	2.1797	16.6663	2.6477	-8.4210	25.3600 
811.687	-0.0840	-0.6812	2.5752	10.4150	2.0599	-7.5256	25.4000 
811.724	-0.0566	-0.1616	1.7373	6.6357	1.4282	-7.7344	25.4300 
811.726	0.0825	-0.0420	1.1997	5.0757	0.7086	-7.6245	25.4100 
811.746	0.0986	-0.0591	1.1543	4.4714	0.4120	-7.5366	25.4300 
811.766	0.1011	-0.0444	1.0566	4.0759	0.2802	-7.3828	25.4100 
811.786	0.1157	-0.0283	1.0313	3.7958	0.0769	-7.2510	25.4200 
811.808	0.1431	-0.0537	1.0195	3.4717	-0.2527	-7.1191	25.4300 
811.826	0.1675	-0.0669	1.0303	3.1860	-0.7196	-6.9873	25.4200 
811.845	0.2031	-0.0806	1.0117	2.9443	-1.2195	-6.8005	25.4300 
811.867	0.1992	-0.0879	1.0107	2.7521	-1.7194	-6.5588	25.4400 
811.885	0.1953	-0.0723	1.0015	2.5543	-2.1808	-6.3116	25.4300 
811.905	0.1978	-0.0854	1.0005	2.4115	-2.6147	-6.0645	25.4200 
811.925	0.2119	-0.0659	0.9868	2.3236	-2.9828	-5.8282	25.4300 
811.970	0.2124	-0.0630	0.9863	2.1643	-3.2520	-5.5811	25.4200 
811.972	0.2192	-0.0840	1.0078	1.8237	-3.3783	-5.2954	25.4200 
811.985	0.2109	-0.0884	1.0122	1.3733	-3.3838	-4.9878	25.4300 
812.005	0.2075	-0.0840	0.9980	0.8405	-3.3893	-4.6692	25.4200 
812.025	0.1885	-0.0991	1.0161	0.2087	-3.4442	-4.3286	25.4300 
812.045	0.1802	-0.1079	1.0171	-0.3955	-3.4882	-3.9771	25.4300 
812.065	0.1841	-0.1138	0.9902	-0.9338	-3.5101	-3.6310	25.4300 
812.084	0.1797	-0.1104	0.9868	-1.4227	-3.4772	-3.3179	25.4000 
812.104	0.2070	-0.1108	0.9683	-1.9116	-3.3618	-2.9883	25.4200 
812.158	0.2104	-0.1362	0.9780	-2.4884	-3.1036	-2.5928	25.4400 
812.160	0.1802	-0.1558	0.9995	-3.1696	-2.6257	-2.1698	25.4200 
812.164	0.1489	-0.1802	1.0254	-3.9276	-2.0654	-1.7798	25.4400 
812.184	0.1343	-0.2056	1.0239	-4.6967	-1.5381	-1.4612	25.4300 
812.204	0.1353	-0.2319	1.0332	-5.2954	-1.0822	-1.2689	25.4300 
812.224	0.1372	-0.2007	1.0522	-5.6360	-0.6647	-1.1920	25.4300 
812.244	0.1328	-0.2012	1.0806	-6.0699	-0.2911	-1.1041	25.4500 
812.264	0.1226	-0.1914	1.0762	-7.0477	0.0000	-0.9558	25.4500 
812.284	0.1113	-0.1646	1.0679	-8.6627	0.2197	-0.7361	25.4500 
812.307	0.1270	-0.0884	1.0278	-10.9369	0.4944	-0.3406	25.4400 
812.350	0.1460	-0.1162	1.1172	-13.9362	0.8240	0.3516	25.4500 
812.353	0.0898	0.0967	1.7891	-19.4019	1.3293	1.6589	25.4700 
812.363	0.2407	0.0718	1.9312	-28.6688	1.5985	3.4167	25.4500 
812.383	0.6455	0.0938	1.4341	-40.1770	1.6040	5.7678	25.4700 
812.403	0.4956	-1.0547	3.4624	-50.9711	4.0045	6.1963	25.4500 
812.423	0.8291	0.7295	3.4292	-54.5087	6.8005	4.8560	25.4200 
812.442	0.7310	0.6548	1.4009	-52.9596	8.1848	4.3561	25.4300 
812.463	0.6265	0.3315	0.5835	-49.1528	8.9429	3.6804	25.4400 
812.482	0.6797	0.2427	0.8003	-44.8956	9.5746	2.6312	25.4400 
812.503	0.6802	0.1201	1.1514	-39.9738	9.7559	1.4612	25.4300 
812.541	0.5781	-0.0439	1.1270	-34.6124	9.2395	0.3845	25.4200 
812.545	0.2529	-0.2798	0.9795	-28.7183	8.1024	-0.6262	25.4100 
812.562	0.0649	-0.4092	1.0454	-22.6538	6.7126	-1.5381	25.4200 
812.582	-0.0938	-0.5317	1.2891	-16.7816	5.3064	-2.2302	25.4300 
812.602	-0.1353	-0.5771	1.3394	-11.1456	4.0375	-2.6147	25.4100 
812.622	-0.1479	-0.5859	1.4487	-5.6140	2.8839	-2.7081	25.4100 
812.642	-0.1440	-0.5938	1.5337	-0.3076	1.7688	-2.5708	25.4100 
812.661	-0.0771	-0.6641	1.6118	4.7516	0.5493	-2.1863	25.4000 
812.683	0.0283	-0.7319	1.6606	9.5911	-0.8075	-1.5875	25.4000 
812.703	0.2671	-0.8286	1.7725	14.2657	-2.3016	-0.8954	25.4000 
812.721	0.3789	-0.9526	1.7432	18.7646	-3.8232	-0.3845	25.3900 
812.748	0.3975	-1.1538	1.4326	23.1372	-5.4382	-0.2527	25.3700 
812.782	0.3169	-1.2832	1.2891	27.2516	-7.1191	-0.8020	25.3800 
812.785	-0.2852	-1.5728	0.8228	31.1023	-8.0035	-2.6422	25.3900 
812.801	-0.7285	-1.9434	0.6255	34.2279	-6.9543	-5.9436	25.3800 
812.821	-1.0723	-2.1826	0.2017	35.9637	-5.8942	-8.1189	25.3900 
812.840	-0.5923	-1.6938	-0.4404	36.0352	-5.0262	-8.7836	25.3800 
812.860	-0.0439	0.0771	0.8691	32.7173	-2.7850	-7.3059	25.3700 
812.881	0.6265	0.5220	0.1748	29.1962	-0.8020	-4.8395	25.3600 
812.901	-0.6724	-0.3291	1.7046	24.0381	0.7526	-3.4387	25.3400 
812.920	-0.3535	-0.1201	1.9658	18.7482	1.3458	-3.3289	25.3500 
812.966	0.3853	-0.9839	2.5630	13.2001	0.3186	-2.2852	25.3900 
812.968	-0.3315	-0.0391	1.9663	9.2450	-0.9613	-2.3785	25.4000 
812.981	-0.0010	-0.0352	1.2295	7.2235	-1.3239	-2.3016	25.4200 
813.000	0.1050	-0.1133	1.1499	6.0809	-1.3843	-2.1588	25.4300 
813.020	0.1074	-0.0986	1.0708	5.2075	-1.4667	-1.9775	25.4100 
813.040	0.1113	-0.0903	1.0474	4.6307	-1.5930	-1.8073	25.4200 
813.060	0.1265	-0.0854	1.0283	4.0594	-1.8182	-1.6754	25.4200 
813.079	0.1626	-0.1016	1.0303	3.5706	-2.1478	-1.5161	25.4200 
813.100	0.1860	-0.1172	1.0103	3.0981	-2.5159	-1.2689	25.4100 
813.159	0.1655	-0.1196	1.0093	2.6807	-2.7905	-0.9998	25.4100 
813.161	0.1621	-0.1196	1.0122	2.2083	-2.9938	-0.7306	25.4200 
813.161	0.1597	-0.1343	1.0122	1.7194	-3.1805	-0.4614	25.4200 
813.182	0.1475	-0.1304	1.0112	1.2799	-3.2959	-0.1978	25.4300 
813.199	0.1675	-0.1250	0.9873	0.8130	-3.3344	0.0549	25.4200 
813.219	0.1670	-0.1343	0.9893	0.2417	-3.3069	0.3406	25.4200 
813.239	0.1689	-0.1709	1.0049	-0.4230	-3.2190	0.6702	25.4100 
813.259	0.1494	-0.1636	0.9941	-1.1591	-3.0212	1.0162	25.4200 
813.278	0.1338	-0.1675	0.9956	-1.8402	-2.7740	1.3239	25.4200 
813.298	0.1309	-0.1548	0.9819	-2.4884	-2.5488	1.5930	25.4200 
813.351	0.1377	-0.1763	0.9937	-3.3124	-2.2742	1.8567	25.4200 
813.355	0.1343	-0.2686	1.0503	-4.2792	-1.9006	2.1149	25.4000 
813.359	0.1226	-0.2490	1.0254	-4.9548	-1.5161	2.2742	25.4300 
813.378	0.1040	-0.2446	1.0410	-5.3448	-1.1865	2.3730	25.4300 
813.409	0.0928	-0.2441	1.0327	-5.7294	-0.9064	2.3785	25.4300 
813.418	0.0894	-0.2578	1.0352	-6.3391	-0.6537	2.3126	25.4300 
813.438	0.1138	-0.2109	1.0679	-7.2400	-0.4504	2.2906	25.4300 
813.458	0.1113	-0.1831	1.0796	-8.5089	-0.3241	2.3730	25.4300 
813.478	0.1426	0.0547	1.0742	-10.4700	-0.3186	2.8125	25.4300 
813.497	0.0693	0.2109	1.3687	-13.6560	-0.2802	3.7573	25.4500 
813.556	-0.0356	-0.0635	1.8672	-21.2366	-0.1648	5.4712	25.4500 
813.561	0.5181	0.1050	1.9370	-32.3712	-0.5933	8.0200	25.4300 
813.561	0.8818	0.1714	3.5151	-44.7858	0.7141	10.4425	25.4200 
813.577	1.0527	0.3989	4.5469	-50.3998	4.0649	9.8877	25.4100 
813.596	0.8882	0.7437	1.1338	-48.2849	5.3284	9.6844	25.4300 
813.616	0.6816	0.5850	0.6416	-44.4287	6.1304	8.9648	25.4200 
813.637	0.6650	0.3862	1.0483	-40.5450	6.6797	7.8772	25.4000 
813.657	0.5908	0.2520	1.2173	-36.1285	6.8005	6.7786	25.4200 
813.677	0.3604	0.0078	1.0884	-30.6519	6.2183	5.8612	25.4100 
813.696	0.1978	-0.1660	1.0693	-24.7797	5.1965	5.0922	25.4000 
813.717	-0.0635	-0.3135	1.1685	-18.8141	3.9056	4.4220	25.4100 
813.736	-0.2598	-0.3794	1.2632	-12.9858	2.5214	3.9056	25.3900 
813.756	-0.3047	-0.5078	1.4292	-7.3224	1.0602	3.7189	25.4000 
813.791	-0.1831	-0.5737	1.4683	-1.8402	-0.3076	3.8123	25.4000 
813.796	-0.0532	-0.6133	1.4966	3.3838	-1.4227	3.9661	25.4000 
813.816	0.0210	-0.6655	1.5820	8.2947	-2.5049	4.0924	25.3700 
813.836	0.2197	-0.7808	1.7495	12.8760	-3.8232	4.1913	25.3900 
813.856	0.3589	-0.8955	1.8408	17.2650	-5.2734	4.1748	25.3600 
813.875	0.3535	-1.0430	1.5693	21.6980	-6.6467	3.9935	25.3700 
813.896	0.2534	-1.2129	1.3438	26.2189	-8.1409	3.4552	25.3700 
813.916	-0.2109	-1.5200	1.0884	30.5035	-8.9154	1.5436	25.3700 
813.935	-0.6177	-1.7603	0.7656	34.1180	-7.5586	-1.9171	25.3600 
813.975	-0.9243	-2.0474	0.3662	36.4197	-5.9271	-4.2737	25.3700 
813.978	-0.6719	-1.8022	-0.1367	37.1997	-4.6802	-5.4327	25.3600 
813.996	-0.6982	-1.4658	-0.1172	35.0079	-2.3840	-4.6472	25.3600 
814.015	-0.1831	0.5449	1.0029	31.5637	0.6372	-2.7411	25.3500 
814.035	0.1265	-0.2905	1.5459	26.9934	1.8896	-0.7526	25.3400 
814.055	-0.6694	-0.1284	1.8770	22.2089	2.6312	-0.3955	25.3400 
814.075	1.2334	-1.6445	3.0752	17.1771	2.0215	0.0275	25.3600 
814.094	-0.3911	-0.0571	1.8145	12.0905	0.7251	0.5933	25.3900 
814.114	-0.0264	-0.0776	1.3623	9.3329	-0.0934	0.4285	25.4000 
814.160	0.1333	-0.1045	1.1655	7.9541	-0.1208	0.4285	25.4000 
814.164	0.0820	-0.0732	1.0537	7.1191	-0.1318	0.5658	25.4000 
814.174	0.0874	-0.0796	1.0747	6.5753	-0.2417	0.6702	25.3900 
814.194	0.0742	-0.0811	1.0562	6.0919	-0.3955	0.7141	25.4100 
814.214	0.1338	-0.0811	1.0303	5.6305	-0.5768	0.7251	25.4000 
814.234	0.1641	-0.1167	1.0186	5.1855	-0.8295	0.8350	25.4000 
814.254	0.1279	-0.0928	1.0137	4.8450	-1.0986	0.9778	25.4100 
814.274	0.1323	-0.0977	1.0195	4.5593	-1.4063	1.1206	25.4100 
814.293	0.1489	-0.1035	1.0122	4.3121	-1.7029	1.2909	25.4100 
814.313	0.1426	-0.1040	1.0107	4.0210	-1.9006	1.4722	25.4100 
814.333	0.1455	-0.1147	1.0146	3.6914	-2.0160	1.6644	25.3900 
814.353	0.1553	-0.0947	0.9932	3.3838	-2.0929	1.8732	25.4100 
814.398	0.1553	-0.0923	0.9893	2.9938	-2.1094	2.1423	25.4100 
814.402	0.1372	-0.1040	1.0039	2.4554	-2.0270	2.4554	25.4200 
814.413	0.1133	-0.1240	1.0098	1.8292	-1.8402	2.7960	25.4200 
814.433	0.1182	-0.1255	1.0034	1.1646	-1.5601	3.1421	25.4000 
814.453	0.1089	-0.1357	1.0020	0.4340	-1.1700	3.4497	25.4100 
814.472	0.1089	-0.1611	1.0137	-0.4285	-0.6757	3.7079	25.4100 
814.493	0.0938	-0.2017	1.0576	-1.3513	-0.1099	3.8782	25.4100 
814.512	0.0854	-0.2031	1.0322	-2.1808	0.3790	3.9331	25.4200 
814.533	0.0806	-0.1982	1.0317	-2.6862	0.8130	3.8892	25.4100 
814.586	0.0830	-0.2202	1.0474	-3.0652	1.1700	3.7738	25.4300 
814.588	0.0752	-0.2114	1.0630	-3.6804	1.4502	3.6804	25.4300 
814.592	0.0596	-0.1836	1.0396	-4.6472	1.6809	3.6255	25.4200 
814.612	0.1089	-0.1147	1.0850	-6.0205	1.8292	3.6969	25.4300 
814.632	0.1021	0.0166	1.0713	-8.0200	1.8402	4.1968	25.4400 
814.652	0.0532	0.4575	1.7339	-11.9421	1.7194	5.5426	25.4400 
814.671	0.1943	0.1426	1.8652	-20.5170	1.6644	7.6300	25.4400 
814.691	0.6416	0.0391	1.6304	-33.3545	1.8622	10.0525	25.4300 
814.711	0.3042	-0.1577	3.2090	-45.5823	4.6417	10.9863	25.4200 
814.732	0.8828	0.6426	3.3721	-49.2023	7.7234	11.0907	25.4100 
814.772	1.0825	0.5586	1.3853	-47.6862	9.1901	12.1014	25.4100 
814.775	0.9429	0.3057	0.6353	-43.9838	9.5856	12.3926	25.4000 
814.791	0.8809	0.2090	0.8472	-40.2374	9.3713	11.8762	25.4000 
814.811	0.5044	0.1060	1.0415	-35.8704	8.4210	10.8435	25.4000 
814.831	0.2407	0.0122	1.1123	-30.7123	6.9928	9.6185	25.3900 
814.850	-0.0811	-0.1782	1.2036	-25.0104	5.4877	8.3716	25.3900 
814.870	-0.2603	-0.2969	1.1582	-18.9899	4.1473	7.3334	25.4000 
814.890	-0.3447	-0.4390	1.1641	-12.9913	2.9608	6.7181	25.4000 
814.910	-0.2808	-0.4941	1.3071	-7.3114	1.8073	6.5533	25.3800 
814.932	-0.1997	-0.5259	1.4639	-1.8951	0.7526	6.5973	25.3800 
814.951	-0.0942	-0.5630	1.4487	3.3234	-0.2911	6.7126	25.3800 
814.970	0.0186	-0.6250	1.5986	8.2068	-1.4282	6.7950	25.3600 
815.016	0.0298	-0.7031	1.8647	12.7881	-2.6257	6.7621	25.3700 
815.018	0.0996	-0.8613	1.7539	17.3035	-3.9386	6.6907	25.3600 
815.030	0.1855	-0.9570	1.5562	21.6101	-5.4767	6.6412	25.3700 
815.050	0.2344	-1.1216	1.3408	25.5762	-7.3059	6.6193	25.3600 
815.069	0.0615	-1.2495	1.1685	29.2291	-9.1351	6.1688	25.3600 
815.091	-0.2881	-1.5205	0.7700	32.5415	-10.2118	4.6912	25.3600 
815.109	-0.4824	-1.7881	0.4751	35.2441	-9.3054	1.8842	25.3600 
815.129	-0.6128	-1.8916	0.2134	36.4911	-8.1409	-0.1373	25.3600 
815.149	-0.3359	-1.6113	0.4424	36.2878	-7.0807	-1.4337	25.3500 
815.201	-0.0112	-0.7642	0.6934	33.8544	-6.9653	-0.0494	25.3600 
815.204	0.0591	0.7983	0.4399	30.5695	-4.6198	1.2305	25.3700 
815.209	-1.3145	-0.2144	1.0845	26.4386	-1.9775	1.9006	25.3400 
815.229	-0.7646	0.1782	0.9990	21.1212	-0.5823	2.0929	25.3300 
815.249	-0.7192	-0.6914	3.1548	13.1287	-1.9006	2.6422	25.3700 
815.268	0.2051	-0.1274	1.2827	9.1571	-3.1860	2.3950	25.4000 
815.288	0.2524	-0.0830	1.0117	8.1519	-3.5596	2.2906	25.4000 
815.308	0.1621	-0.1309	1.0947	7.5916	-3.8507	2.3511	25.3900 
815.328	0.1338	-0.1104	1.0576	7.0807	-3.9935	2.4719	25.4000 
815.348	0.1035	-0.0820	1.0273	6.7236	-4.0814	2.5543	25.4000 
815.395	0.1201	-0.0874	1.0215	6.2787	-4.2517	2.5763	25.4000 
815.398	0.1382	-0.0854	1.0249	6.0040	-4.5099	2.5928	25.4000 
815.408	0.1753	-0.1025	0.9995	5.6689	-4.8889	2.6477	25.4100 
815.429	0.1875	-0.1279	1.0093	5.2625	-5.2844	2.7356	25.4000 
815.448	0.1846	-0.1226	1.0010	4.8944	-5.5646	2.8949	25.4000 
815.468	0.1689	-0.1201	0.9995	4.5483	-5.7623	3.0762	25.4100 
815.487	0.1699	-0.1270	1.0137	4.2407	-5.8777	3.2629	25.4100 
815.507	0.1675	-0.1216	1.0083	3.9386	-5.8832	3.4497	25.3900 
815.527	0.1606	-0.1182	1.0024	3.4442	-5.8118	3.6584	25.4100 
815.550	0.1436	-0.1333	1.0132	2.8070	-5.6854	3.8782	25.4000 
815.589	0.1436	-0.1377	1.0107	2.1259	-5.5371	4.0979	25.4000 
815.592	0.1577	-0.1631	0.9971	1.2964	-5.3943	4.3286	25.4000 
815.609	0.1621	-0.1494	0.9800	0.5383	-5.1965	4.5703	25.4000 
815.627	0.1489	-0.1558	0.9888	-0.1923	-4.8834	4.8340	25.4200 
815.647	0.1318	-0.1880	1.0068	-1.0657	-4.3890	5.0757	25.4100 
815.667	0.1294	-0.2144	1.0137	-1.7413	-3.8123	5.2240	25.3900 
815.686	0.1318	-0.2539	1.0376	-2.2302	-3.2465	5.2789	25.4000 
815.706	0.0898	-0.2324	1.0811	-2.5049	-2.6862	5.2185	25.4000 
815.726	0.0972	-0.2095	1.0596	-2.9114	-2.1808	5.1416	25.4100 
815.749	0.0898	-0.2231	1.0596	-3.8672	-1.7908	5.0757	25.4000 
815.766	0.0625	-0.1846	1.0518	-5.2515	-1.5271	5.0702	25.4100 
815.786	0.1113	0.0322	1.0259	-6.8225	-1.4502	5.3119	25.4100 
815.824	0.1104	0.0186	1.1987	-9.3658	-1.4832	6.1139	25.4300 
815.827	0.0322	0.1826	1.9678	-16.2653	-1.5051	7.7344	25.4300 
815.846	0.4370	0.1377	2.1553	-27.6031	-2.4280	10.1129	25.4200 
815.866	0.5122	0.3369	1.5908	-41.8359	-3.1586	13.5022	25.4200 
815.887	0.6548	-1.2593	4.8247	-53.2837	-0.4065	14.2603	25.4100 
815.906	0.9316	0.6572	2.7578	-54.0198	1.9720	13.6560	25.4100 
815.925	0.7256	0.5107	1.1772	-50.6799	3.3563	12.9968	25.4200 
815.945	0.5840	0.2402	0.7832	-45.7416	4.2297	12.1289	25.4000 
815.966	0.6025	0.1362	0.8921	-40.6934	4.7626	11.2610	25.3900 
816.014	0.5029	-0.0034	1.0190	-35.0574	4.8450	10.4205	25.3900 
816.016	0.3965	-0.1113	0.9429	-28.9270	4.3781	9.5911	25.3900 
816.038	0.1382	-0.2788	0.9321	-22.6208	3.5541	8.7012	25.3900 
816.044	-0.0234	-0.3491	1.0356	-16.3586	2.5763	7.8387	25.4100 
816.065	-0.1582	-0.4565	1.3213	-10.3107	1.5710	7.1686	25.3700 
816.085	-0.1777	-0.5000	1.3916	-4.4495	0.5438	6.7950	25.3700 
816.104	-0.1543	-0.5562	1.4922	1.1700	-0.4999	6.6412	25.3600 
816.124	-0.0830	-0.5928	1.6045	6.4984	-1.7029	6.6632	25.3800 
816.144	0.0488	-0.6597	1.6694	11.5961	-3.0817	6.7511	25.3600 
816.163	0.0981	-0.7930	1.8950	16.3806	-4.5154	6.8060	25.3600 
816.202	0.2485	-1.0313	2.0029	21.0059	-6.0754	6.9049	25.3700 
816.206	0.3843	-1.2271	1.7700	25.6586	-7.8058	7.0862	25.3700 
816.223	0.2495	-1.7036	1.3003	30.1740	-9.3713	6.7181	25.3500 
816.244	-0.1528	-1.9775	0.9756	34.2169	-10.5524	5.4822	25.3600 
816.263	-1.2207	-2.7188	-0.2349	37.3480	-9.0747	2.4225	25.3500 
816.283	-1.3013	-2.8711	-0.6543	38.1610	-7.5366	0.7526	25.3400 
816.307	-1.1201	-0.8340	0.2705	35.1508	-4.8669	2.1588	25.3200 
816.323	0.4458	0.1299	1.8491	30.2069	-2.9333	4.7791	25.3100 
816.343	-0.1211	-0.2803	1.8989	24.9774	-2.6587	6.7181	25.3100 
816.394	0.9639	-0.2676	2.9917	19.5941	-2.8125	7.1356	25.3200 
816.397	-0.6152	-0.0991	2.0059	14.6173	-3.7024	7.3389	25.3600 
816.403	0.2075	-0.1665	1.4180	11.0742	-5.1086	6.9873	25.3700 
816.422	0.1279	-0.0957	1.1255	9.5691	-5.5206	6.8390	25.3900 
816.443	0.1406	-0.1006	1.0903	8.6407	-5.8008	6.8665	25.3900 
816.466	0.1055	-0.0835	1.0781	7.9871	-6.0205	6.9269	25.4000 
816.483	0.1089	-0.0942	1.0479	7.4268	-6.3007	6.9324	25.3700 
816.502	0.1875	-0.1050	1.0356	6.8774	-6.7126	6.9543	25.4000 
816.523	0.2124	-0.1211	1.0278	6.3391	-7.1246	7.0477	25.4000 
816.543	0.1758	-0.1079	1.0098	5.9052	-7.3938	7.2015	25.4000 
816.564	0.1719	-0.1074	1.0020	5.4932	-7.6080	7.3773	25.3700 
816.582	0.1577	-0.1069	1.0073	5.0812	-7.7618	7.5531	25.3900 
816.638	0.1841	-0.1118	0.9932	4.6637	-7.8333	7.7618	25.3800 
816.640	0.1870	-0.1250	0.9922	4.1748	-7.8003	8.0035	25.3700 
816.642	0.1880	-0.1211	0.9834	3.5925	-7.6849	8.2837	25.3800 
816.662	0.1763	-0.1309	0.9927	2.8619	-7.4542	8.6078	25.3900 
816.683	0.1685	-0.1704	1.0151	1.9995	-7.1136	8.9923	25.3900 
816.701	0.1426	-0.1587	1.0015	1.0876	-6.6467	9.3823	25.3800 
816.721	0.1372	-0.1738	0.9995	0.1978	-6.1359	9.7229	25.3800 
816.743	0.1338	-0.1724	1.0020	-0.5713	-5.6140	10.0195	25.3900 
816.761	0.1118	-0.2202	1.0317	-1.3129	-5.0812	10.2448	25.4000 
816.781	0.1152	-0.2378	1.0278	-1.8732	-4.5813	10.3986	25.4100 
816.827	0.0884	-0.2144	1.0317	-2.1094	-4.0649	10.4590	25.3900 
816.829	0.0737	-0.2329	1.0400	-2.3456	-3.5651	10.3601	25.3900 
816.841	0.0762	-0.2432	1.0596	-2.7301	-3.0707	10.1074	25.4000 
816.861	0.0830	-0.1978	1.0635	-3.2849	-2.6147	9.8163	25.4000 
816.881	0.1162	-0.1772	1.0654	-4.4000	-2.3401	9.6350	25.4200 
816.900	0.1699	0.0200	1.0396	-6.0205	-2.2137	9.7723	25.4200 
816.920	0.1670	0.5181	1.4048	-8.8385	-2.0270	10.9094	25.4200 
816.940	0.1138	0.3721	2.1406	-15.8203	-1.6589	13.0133	25.4300 
816.960	0.7280	0.1851	2.0679	-28.4216	-1.2524	15.7324	25.4100 
817.019	0.6860	0.3140	2.1484	-42.6599	1.2085	17.7209	25.4100 
817.021	0.8901	0.6021	4.5151	-49.9823	5.8063	16.5070	25.3900 
817.021	1.0840	0.7227	2.2173	-49.3561	7.9321	16.3257	25.3900 
817.040	0.8672	0.5239	0.6621	-45.1263	8.8165	15.8258	25.3800 
817.060	0.7676	0.4185	0.7563	-40.5670	9.3219	14.6063	25.3700 
817.079	0.5366	0.2822	1.0601	-35.8374	9.1736	13.2715	25.3800 
817.099	0.3311	0.1128	1.1416	-30.3223	8.0640	12.2772	25.3700 
817.119	-0.0264	-0.1592	1.1079	-24.1150	6.4215	11.3983	25.3700 
817.139	-0.2383	-0.3193	1.1191	-17.6825	4.7955	10.5084	25.3900 
817.159	-0.5146	-0.4541	1.2085	-11.2665	3.4277	9.8602	25.3800 
817.203	-0.5068	-0.4951	1.2993	-5.0592	2.0819	9.7778	25.3600 
817.206	-0.3379	-0.5444	1.4731	0.7526	0.7086	10.1624	25.3600 
817.219	-0.2212	-0.5898	1.5400	6.1908	-0.6592	10.6677	25.3500 
817.239	-0.0190	-0.6831	1.7251	11.2500	-2.2137	11.0193	25.3400 
817.259	0.0957	-0.7705	2.0049	16.0455	-3.7848	11.0468	25.3400 
817.278	0.1074	-0.9336	2.0576	20.8521	-5.1526	10.6787	25.3400 
817.298	0.2295	-1.1494	1.8545	25.6696	-6.6467	10.2722	25.3300 
817.318	0.1914	-1.5176	1.2744	30.3992	-8.3221	9.6130	25.3400 
817.340	-0.1616	-1.8052	1.0059	34.7552	-9.9042	7.8113	25.3300 
817.358	-1.2202	-2.6567	0.4023	38.3588	-9.8438	4.7626	25.3400 
817.379	-1.4756	-2.7412	-0.3076	40.6989	-8.7396	2.0435	25.3400 
817.398	-0.8843	-1.9497	-0.0698	39.3530	-7.4103	2.0325	25.3300 
817.443	-0.6953	0.3950	0.8735	35.5573	-4.7461	4.1418	25.3000 
817.445	0.8906	-0.1699	0.8052	31.0034	-3.4058	7.3553	25.2900 
817.458	-0.5762	-0.2129	1.9736	25.3784	-2.9059	9.2395	25.3100 
817.477	1.5010	-2.4399	3.5913	18.8196	-3.3344	9.6844	25.3500 
817.497	-0.7764	-0.1572	2.3711	12.3871	-5.0262	9.9701	25.3600 
817.517	-0.0576	-0.1196	1.3042	9.9756	-6.2073	9.7778	25.3600 
817.537	0.1157	-0.0859	1.0845	9.0143	-6.5753	9.6954	25.3600 
817.556	0.1240	-0.0991	1.0640	8.4595	-6.7896	9.6954	25.3700 
817.577	0.1104	-0.0825	1.0762	8.0090	-6.9708	9.7119	25.3600 
817.629	0.1323	-0.1064	1.0400	7.5696	-7.1301	9.6954	25.3500 
817.631	0.1328	-0.0967	1.0386	7.2290	-7.3389	9.6460	25.3600 
817.637	0.1724	-0.0928	1.0098	7.0093	-7.5256	9.6130	25.3700 
817.657	0.1787	-0.0903	1.0054	6.8555	-7.7234	9.6515	25.3800 
817.677	0.1704	-0.0898	1.0049	6.6412	-7.9266	9.7174	25.3900 
817.696	0.1631	-0.0957	1.0059	6.3831	-8.1573	9.7943	25.3700 
817.716	0.1763	-0.0981	0.9971	6.1139	-8.3221	9.8987	25.3800 
817.736	0.1826	-0.1025	0.9951	5.8173	-8.4045	10.0195	25.3600 
817.756	0.1831	-0.1006	0.9854	5.4053	-8.3716	10.1624	25.3600 
817.776	0.1738	-0.1084	1.0093	4.9109	-8.2013	10.3546	25.3700 
817.821	0.1548	-0.1079	1.0107	4.3286	-7.9596	10.5853	25.3600 
817.825	0.1440	-0.1128	0.9951	3.6475	-7.6575	10.8380	25.3600 
817.836	0.1528	-0.1206	0.9839	2.8784	-7.2949	11.1127	25.3600 
817.856	0.1396	-0.1299	0.9937	2.1039	-6.8500	11.3599	25.3600 
817.875	0.1353	-0.1323	1.0015	1.3129	-6.2787	11.5741	25.3600 
817.895	0.1094	-0.2144	1.0601	0.3900	-5.6635	11.7444	25.3800 
817.915	0.0928	-0.2051	1.0308	-0.4395	-5.0812	11.7993	25.3900 
817.935	0.0815	-0.2012	1.0459	-0.9283	-4.5593	11.7114	25.4000 
817.955	0.0708	-0.2217	1.0376	-1.3074	-4.0594	11.4862	25.4000 
817.975	0.0884	-0.2212	1.0669	-1.7908	-3.6310	11.1676	25.3800 
817.995	0.0967	-0.1816	1.0742	-2.6422	-3.3344	10.9149	25.3900 
818.015	0.1230	-0.1714	1.0732	-4.0375	-3.1311	10.7996	25.3900 
818.066	0.1797	0.0327	1.0229	-5.7898	-2.9169	10.9644	25.3900 
818.069	0.2271	0.3936	1.4126	-9.0417	-2.7136	12.0959	25.4000 
818.074	0.0405	0.1318	1.7173	-15.8917	-2.3621	14.0460	25.4000 
818.094	0.6484	0.0571	2.0464	-27.7679	-2.1588	16.9299	25.4100 
818.114	0.7070	0.5630	1.8877	-41.5118	-0.2307	19.6326	25.3900 
818.134	0.9473	0.3740	4.6929	-50.2844	4.3066	18.7482	25.3800 
818.154	1.1323	0.6372	2.3599	-50.5701	6.2787	18.5065	25.3700 
818.174	0.8994	0.4438	0.6650	-47.0325	6.4600	18.4131	25.3800 
818.195	0.8125	0.3071	0.7681	-42.8522	5.9766	17.7484	25.3800 
818.213	0.6187	0.1660	0.9790	-38.4906	4.9274	16.5948	25.3600 
818.254	0.4106	0.0747	0.9922	-33.5522	3.4442	15.1501	25.3800 
818.257	0.0786	-0.0854	1.0474	-27.8558	1.8402	13.5461	25.3600 
818.274	-0.1006	-0.2031	1.0938	-21.7200	0.4449	11.9366	25.3600 
818.293	-0.3325	-0.3613	1.2295	-15.5786	-0.7635	10.6348	25.3600 
818.313	-0.4326	-0.4561	1.3291	-9.4867	-1.9171	9.8602	25.3400 
818.333	-0.3545	-0.5693	1.4492	-3.5266	-3.1311	9.6899	25.3600 
818.353	-0.1494	-0.6523	1.5508	2.1423	-4.3616	9.9756	25.3300 
818.373	0.1001	-0.7100	1.6450	7.5476	-5.4767	10.3436	25.3400 
818.393	0.1289	-0.7749	1.7505	12.7277	-6.4655	10.4700	25.3300 
818.463	0.1743	-0.9438	1.9253	17.7374	-7.4927	10.2997	25.3100 
818.465	0.1782	-1.1040	1.8389	22.5879	-8.7012	9.9591	25.3400 
818.465	-0.0674	-1.3652	1.4468	27.3724	-10.2502	9.5361	25.2900 
818.472	-0.2031	-1.6719	1.2451	31.9263	-11.7499	8.6188	25.3300 
818.492	-0.8125	-2.1470	0.5767	35.7495	-11.4478	6.8939	25.2900 
818.513	-0.9897	-2.4761	0.2002	38.4467	-10.1514	5.0757	25.3000 
818.532	-0.5913	-2.3828	-0.2935	38.7433	-10.0250	4.7351	25.3200 
818.552	-0.4121	-1.2441	0.1309	35.9253	-7.9156	5.9052	25.3100 
818.572	0.7725	0.3340	0.4287	31.7560	-5.9875	8.3936	25.3000 
818.592	0.0073	-0.2935	1.3086	26.7462	-4.9054	10.5963	25.2800 
818.612	1.1914	-1.7681	4.2920	20.9619	-4.7021	10.9204	25.3100 
818.658	-0.5020	-0.2861	2.5864	13.9581	-6.3116	11.4807	25.3300 
818.660	0.1313	-0.1382	1.2739	11.2170	-7.0477	11.1237	25.3400 
818.671	0.1631	-0.1133	1.1299	9.9646	-7.2510	10.9534	25.3500 
818.691	0.1489	-0.0718	1.0518	9.2340	-7.4927	10.9204	25.3500 
818.711	0.1680	-0.0859	1.0410	8.7396	-7.6465	10.9424	25.3500 
818.731	0.1182	-0.0708	1.0322	8.2727	-7.7618	10.9094	25.3600 
818.751	0.1528	-0.0854	1.0303	7.7289	-7.9541	10.8600	25.3500 
818.771	0.1855	-0.0688	1.0024	7.3553	-8.2013	10.8435	25.3500 
818.791	0.1934	-0.1001	1.0137	6.9379	-8.4485	10.8984	25.3600 
818.857	0.1792	-0.0884	0.9941	6.4929	-8.5638	11.0193	25.3700 
818.859	0.1787	-0.0942	0.9946	6.0425	-8.6407	11.1841	25.3600 
818.859	0.1680	-0.1006	0.9976	5.5206	-8.6572	11.3873	25.3500 
818.870	0.1680	-0.0962	0.9863	4.9988	-8.5583	11.6400	25.3600 
818.890	0.1484	-0.0986	1.0044	4.3890	-8.3112	11.9147	25.3600 
818.910	0.1323	-0.1543	1.0298	3.5321	-7.9980	12.2003	25.3600 
818.932	0.1338	-0.1689	1.0234	2.5488	-7.6410	12.4530	25.3700 
818.950	0.1455	-0.1694	1.0122	1.5710	-7.2675	12.6617	25.3700 
818.970	0.1387	-0.1763	1.0044	0.5878	-6.8994	12.8375	25.3400 
818.990	0.1436	-0.1689	0.9854	-0.1648	-6.5369	13.0078	25.3500 
819.053	0.1357	-0.1787	0.9976	-0.7910	-6.1084	13.1506	25.3500 
819.055	0.1045	-0.2183	1.0195	-1.2689	-5.6085	13.2220	25.3600 
819.056	0.0894	-0.2207	1.0288	-1.4777	-5.0757	13.1781	25.3500 
819.069	0.0811	-0.2065	1.0566	-1.6919	-4.5868	13.0133	25.3600 
819.089	0.0718	-0.2285	1.0508	-2.1368	-4.1583	12.7661	25.3700 
819.109	0.0825	-0.2085	1.0620	-2.8455	-3.7573	12.4915	25.3700 
819.129	0.0898	-0.1440	1.0767	-3.9551	-3.5376	12.2992	25.3800 
819.149	0.1816	0.1196	1.0366	-5.6635	-3.4991	12.3981	25.3700 
819.169	0.2173	0.1621	1.2168	-8.2068	-3.5870	13.1342	25.3900 
819.189	0.0459	0.1465	1.8389	-15.3644	-3.5596	14.7766	25.3800 
819.246	0.4897	0.0542	2.0815	-26.8451	-3.5651	17.0178	25.3800 
819.251	0.6470	0.2407	2.0703	-40.9900	-2.5159	19.3304	25.3700 
819.254	0.9604	-0.6133	5.2417	-51.2842	1.0272	18.8031	25.3600 
819.268	1.0146	0.8149	2.2637	-50.8282	2.9279	18.0286	25.3600 
819.289	0.7905	0.5703	0.9170	-46.5875	3.8232	17.5012	25.3700 
819.309	0.7456	0.3667	0.6636	-40.9570	4.2407	16.8036	25.3500 
819.328	0.7168	0.2080	1.0020	-35.5957	4.3671	16.1224	25.3600 
819.348	0.6260	-0.0410	1.3042	-29.9762	3.9056	15.4303	25.3400 
819.370	0.4229	-0.1914	1.2485	-23.4009	2.7795	14.5129	25.3400 
819.388	-0.0117	-0.3584	1.1650	-16.4355	1.2634	13.3099	25.3500 
819.409	-0.2212	-0.4595	1.2554	-9.8218	-0.3680	12.0355	25.3400 
819.427	-0.2939	-0.5483	1.4688	-3.7408	-1.8622	10.9644	25.3300 
819.485	-0.2241	-0.5527	1.5508	2.0599	-3.0652	10.2393	25.3300 
819.487	-0.2524	-0.5425	1.4922	7.5916	-4.0540	9.7614	25.3300 
819.489	-0.3193	-0.5947	1.6470	12.5244	-5.2844	9.4922	25.3200 
819.507	-0.1416	-0.7339	2.0923	16.9904	-7.1027	9.4922	25.3100 
819.527	0.1226	-0.9189	2.0479	21.3464	-9.1626	9.6075	25.3200 
819.547	0.3823	-1.3691	1.6406	25.8124	-10.9863	9.8877	25.3200 
819.567	0.2876	-1.6538	1.3018	30.2673	-12.3816	9.6130	25.3100 
819.587	-0.2139	-2.1787	0.6675	34.2444	-13.5242	8.3881	25.3100 
819.607	-0.7651	-2.6294	0.1807	37.4469	-13.5791	5.8502	25.3100 
819.627	-0.8076	-2.3833	-0.4746	38.7653	-12.6013	3.4058	25.3000 
819.671	-0.6729	-2.3052	-0.0850	36.6504	-10.6183	3.0322	25.2900 
819.674	0.0083	0.5591	1.2222	32.3602	-7.4268	4.6198	25.2800 
819.687	0.0337	-0.1113	1.2925	27.3615	-5.2460	6.4215	25.2800 
819.706	-0.6582	-0.0703	2.0918	22.3297	-4.1034	6.5643	25.2800 
819.726	1.3911	-1.9438	3.2388	16.5729	-4.8175	7.0972	25.3100 
819.745	-0.1616	-0.0581	1.7100	12.1619	-6.2018	7.1466	25.3400 
819.766	-0.0054	-0.1167	1.3213	10.2008	-6.6467	7.1082	25.3200 
819.786	0.1011	-0.0898	1.1353	9.3604	-6.6687	7.1576	25.3300 
819.805	0.1411	-0.0874	1.0566	8.7396	-6.6907	7.2784	25.3400 
819.861	0.1152	-0.0591	1.0171	8.3002	-6.7511	7.3663	25.3500 
819.864	0.1411	-0.0542	1.0313	7.7509	-6.7950	7.4158	25.3400 
819.870	0.1738	-0.0923	1.0273	7.1027	-6.9049	7.5311	25.3300 
819.885	0.1772	-0.1294	1.0381	6.4545	-7.0148	7.6959	25.3500 
819.905	0.1406	-0.1133	1.0293	5.9656	-7.0148	7.8662	25.3400 
819.925	0.1382	-0.1055	1.0112	5.5811	-7.0038	8.0145	25.3300 
819.945	0.1548	-0.1011	1.0078	5.2405	-6.9983	8.1628	25.3400 
819.965	0.1670	-0.1074	0.9971	4.8395	-6.9379	8.3661	25.3400 
819.984	0.1582	-0.1089	0.9897	4.3231	-6.8170	8.6462	25.3500 
820.004	0.1338	-0.1323	1.0156	3.7134	-6.6193	8.9703	25.3400 
820.057	0.1270	-0.1367	1.0166	2.9663	-6.3226	9.3054	25.3500 
820.061	0.1108	-0.1377	1.0098	2.0544	-5.9436	9.6185	25.3500 
820.065	0.1113	-0.1377	1.0005	1.1096	-5.5316	9.8932	25.3400 
820.084	0.0981	-0.1689	1.0195	0.1099	-5.0757	10.1459	25.3400 
820.104	0.0972	-0.2031	1.0298	-1.0162	-4.5813	10.3601	25.3400 
820.124	0.0947	-0.2090	1.0259	-1.9885	-4.0430	10.5469	25.3600 
820.144	0.0757	-0.2354	1.0225	-2.6642	-3.4937	10.6183	25.3600 
820.164	0.0503	-0.2432	1.0205	-3.1091	-3.0048	10.5469	25.3500 
820.184	0.0425	-0.2349	1.0317	-3.4717	-2.5818	10.2942	25.3600 
820.203	0.0747	-0.2329	1.0366	-3.9825	-2.2412	9.9536	25.3500 
820.223	0.0986	-0.2095	1.0479	-4.6747	-1.9995	9.6680	25.3600 
820.244	0.1821	-0.1196	1.0503	-6.0535	-1.8182	9.7229	25.3600 
820.294	0.2241	0.0674	1.1362	-8.2288	-1.6864	10.4425	25.3600 
820.298	0.1006	0.0352	1.9482	-13.7933	-1.4392	12.1948	25.3700 
820.307	0.3872	0.0264	2.0635	-23.8898	-0.4834	14.6997	25.3700 
820.323	0.7012	0.3740	1.7627	-37.5018	2.8180	16.6718	25.3700 
820.343	0.6284	-1.7246	4.6655	-49.4769	8.6737	15.4468	25.3500 
820.363	1.4736	0.5962	2.7568	-51.1139	10.5524	15.4413	25.3400 
820.383	1.1904	0.4722	1.0430	-48.3728	9.9646	16.2927	25.3400 
820.404	0.6050	0.2769	0.5762	-44.1321	8.5089	15.8368	25.3500 
820.422	0.3721	0.2246	0.8989	-39.9023	7.0587	14.6503	25.3400 
820.443	0.0972	0.1260	1.2319	-35.0629	5.5756	13.3813	25.3400 
820.481	-0.0547	-0.0186	1.0381	-29.2401	4.0540	12.2827	25.3400 
820.483	-0.1191	-0.2773	0.6421	-23.0109	2.6038	11.3928	25.3200 
820.502	-0.1309	-0.3311	0.9590	-17.3145	1.2854	10.5853	25.3200 
820.522	-0.2842	-0.4365	1.4380	-12.0520	0.1154	9.7723	25.3200 
820.542	-0.3296	-0.5327	1.3647	-6.7346	-1.0931	9.0582	25.3100 
820.562	-0.3823	-0.5781	1.5454	-1.5106	-2.4170	8.4155	25.3100 
820.582	-0.3286	-0.6294	1.6914	3.5486	-3.6749	7.9486	25.3100 
820.602	-0.1455	-0.7593	1.8184	8.5968	-4.9219	7.6740	25.3100 
820.623	0.0098	-0.8706	1.9263	13.5956	-6.2732	7.4982	25.3100 
820.668	0.2935	-1.0757	1.9194	18.5999	-7.7179	7.4158	25.3100 
820.670	0.3989	-1.3110	1.8296	23.7250	-9.2010	7.4323	25.3000 
820.681	-0.0093	-1.6694	1.2070	28.8556	-10.7227	6.9104	25.3100 
820.701	-0.1963	-2.0439	0.8037	33.5468	-12.4969	5.3778	25.3100 
820.721	-0.9907	-2.6348	-0.2700	37.2162	-12.6398	2.9828	25.2900 
820.741	-1.2251	-2.9360	-0.7017	37.9907	-11.0358	1.5051	25.2900 
820.762	-1.0073	-0.6841	0.4131	35.0134	-8.0145	2.5983	25.2800 
820.781	0.0825	0.4717	1.1401	30.5475	-5.2405	4.8120	25.2700 
820.801	-0.3892	-0.2886	1.7461	25.0378	-4.3506	6.9598	25.2700 
820.821	1.3062	-1.6973	4.1035	19.1382	-4.2957	7.4377	25.2700 
820.840	-0.6577	-0.0825	2.3071	13.9636	-5.6909	7.7289	25.3200 
820.860	0.0879	-0.0923	1.2954	11.1731	-6.6742	7.5476	25.3300 
820.907	0.1187	-0.1001	1.1563	9.8273	-6.8719	7.5751	25.3200 
820.909	0.1064	-0.1001	1.0967	9.0033	-6.8994	7.7179	25.3300 
820.920	0.0845	-0.0879	1.0845	8.3057	-6.9543	7.8278	25.3300 
820.940	0.1079	-0.1001	1.0586	7.6080	-7.0093	7.8717	25.3200 
820.965	0.2026	-0.0977	1.0210	6.9928	-7.0148	7.9431	25.3200 
820.982	0.1797	-0.1138	1.0054	6.3831	-6.9763	8.1134	25.3200 
821.000	0.1523	-0.1167	1.0142	5.8997	-6.8939	8.3057	25.3200 
821.020	0.1309	-0.1187	1.0239	5.4437	-6.8280	8.4979	25.3200 
821.042	0.1245	-0.1079	0.9995	5.0262	-6.7786	8.7012	25.3300 
821.059	0.1313	-0.1201	1.0039	4.5813	-6.6632	8.9264	25.3400 
821.095	0.1348	-0.1479	1.0200	4.0594	-6.4655	9.1681	25.3200 
821.099	0.1348	-0.1387	1.0010	3.4003	-6.1908	9.4098	25.2900 
821.119	0.1289	-0.1392	0.9976	2.5598	-5.8557	9.6680	25.3100 
821.139	0.1045	-0.1592	1.0137	1.5161	-5.4877	9.9536	25.3200 
821.159	0.0869	-0.1768	1.0127	0.3406	-5.1141	10.2063	25.3300 
821.179	0.0898	-0.2007	1.0127	-0.7306	-4.7571	10.4095	25.3200 
821.199	0.0908	-0.2007	1.0068	-1.3568	-4.4220	10.5524	25.3200 
821.218	0.0869	-0.2148	1.0254	-1.7523	-4.0924	10.6293	25.3200 
821.238	0.0757	-0.2231	1.0205	-2.0654	-3.7683	10.6183	25.3300 
821.284	0.0610	-0.2334	1.0259	-2.3566	-3.4277	10.4919	25.3400 
821.286	0.0552	-0.2407	1.0244	-2.7246	-3.0103	10.2557	25.3500 
821.298	0.0625	-0.2026	1.0303	-3.0707	-2.5598	9.9371	25.3300 
821.318	0.0854	-0.1987	1.0317	-3.6639	-2.1478	9.6735	25.3300 
821.338	0.1226	-0.1455	1.0181	-4.9164	-1.9226	9.7284	25.3300 
821.359	0.1084	0.0947	1.1069	-6.4929	-1.8842	10.3766	25.3600 
821.377	0.1445	0.5815	1.8799	-10.7666	-1.9720	12.3157	25.3700 
821.398	0.1699	0.2935	2.1216	-20.5609	-1.7798	15.0568	25.3600 
821.418	0.6821	0.3628	1.6929	-34.9915	-0.9283	17.9956	25.3400 
821.481	0.3535	-1.8706	3.9253	-48.8507	2.7191	18.8196	25.3300 
821.488	1.1172	0.6318	3.3169	-52.1411	5.6580	18.8635	25.3300 
821.488	1.1406	0.5483	1.3398	-50.0647	6.7017	19.7589	25.3400 
821.497	0.8413	0.3037	0.4448	-45.6812	6.7072	19.7754	25.3300 
821.517	0.7222	0.2544	0.6782	-41.0724	6.1743	19.1162	25.3300 
821.537	0.4585	0.1196	1.2515	-36.5350	5.0372	18.1384	25.3300 
821.557	0.2061	-0.0034	1.2832	-31.0913	3.5156	17.0178	25.3100 
821.576	-0.1304	-0.2061	1.0791	-24.4995	1.9281	15.8203	25.3100 
821.597	-0.2554	-0.3516	1.0801	-17.7869	0.5493	14.7162	25.3000 
821.618	-0.2822	-0.5332	1.1304	-11.4917	-0.7086	13.9581	25.3000 
821.637	-0.0791	-0.6138	1.3164	-5.7184	-1.9885	13.6066	25.2800 
821.657	0.1880	-0.6509	1.6294	-0.1099	-3.1970	13.1836	25.3100 
821.676	0.1396	-0.6802	1.6738	5.5426	-4.2133	12.1509	25.2900 
821.721	0.0371	-0.7925	1.8096	11.0303	-5.0977	10.5908	25.2800 
821.725	0.0527	-0.8950	1.8794	16.3092	-5.7623	8.9154	25.2800 
821.735	0.0513	-1.1230	2.0215	21.2915	-6.0974	7.5476	25.2800 
821.756	0.0601	-1.3359	1.9604	26.1584	-6.6797	7.0862	25.2900 
821.776	-0.5815	-1.7271	1.2417	31.3220	-6.7017	4.7406	25.2700 
821.796	-0.6670	-2.2344	0.6318	35.8319	-7.3389	2.5378	25.2600 
821.816	-0.9771	-2.9204	-0.4268	38.8861	-7.5421	1.3239	25.2500 
821.836	-0.1572	-2.3813	-0.7266	39.2816	-8.5858	1.8567	25.2700 
821.856	0.0229	-0.8535	0.9536	35.8978	-8.6298	4.8505	25.2500 
821.914	0.4429	0.6035	0.3369	31.9208	-6.9489	7.3773	25.2600 
821.916	-0.9058	-0.3149	1.5210	26.9110	-5.4932	8.4100	25.2300 
821.916	-0.1055	0.4561	1.5557	21.1761	-5.0208	8.4979	25.2400 
821.935	-0.5869	-0.2759	2.5581	13.8647	-6.6522	9.0198	25.3000 
821.955	0.2949	-0.1538	1.2402	10.7721	-7.3773	8.7891	25.3000 
821.975	0.1675	-0.1411	1.1147	9.6735	-7.3553	8.8055	25.3000 
821.995	0.1489	-0.1182	1.0894	9.1241	-7.3224	8.9154	25.3000 
822.015	0.1357	-0.0728	1.0249	8.8055	-7.2400	9.0198	25.3000 
822.035	0.1089	-0.0742	1.0171	8.4595	-7.1741	9.0967	25.2900 
822.056	0.1577	-0.0830	1.0190	7.8882	-7.1960	9.1406	25.3000 
822.100	0.1670	-0.1001	1.0229	7.3224	-7.3169	9.2450	25.3000 
822.102	0.1470	-0.1230	1.0254	6.7456	-7.4707	9.4153	25.3000 
822.114	0.1333	-0.1187	1.0156	6.1853	-7.5531	9.5911	25.3100 
822.134	0.1323	-0.1128	1.0083	5.7513	-7.6245	9.7668	25.3100 
822.154	0.1494	-0.1343	1.0132	5.3448	-7.6685	9.9536	25.3100 
822.174	0.1484	-0.1289	1.0049	4.9658	-7.6355	10.1678	25.3000 
822.194	0.1401	-0.1206	0.9971	4.5428	-7.5366	10.4095	25.3000 
822.214	0.1270	-0.1187	1.0010	3.9661	-7.3938	10.6952	25.3100 
822.234	0.1187	-0.1367	1.0083	3.3124	-7.1741	10.9863	25.3100 
822.289	0.1099	-0.1465	1.0122	2.5433	-6.8939	11.2500	25.3100 
822.292	0.1113	-0.1582	1.0034	1.7578	-6.5588	11.4862	25.3000 
822.293	0.1191	-0.1475	0.9966	1.0217	-6.1688	11.6895	25.2900 
822.313	0.0898	-0.1968	1.0254	0.1318	-5.7129	11.8707	25.3000 
822.333	0.0947	-0.2427	1.0391	-0.7251	-5.1636	11.9916	25.3200 
822.353	0.0757	-0.2207	1.0322	-1.2030	-4.6033	11.9861	25.3200 
822.373	0.0679	-0.2373	1.0303	-1.5216	-4.1418	11.8378	25.3200 
822.392	0.0674	-0.2412	1.0347	-1.8237	-3.7244	11.5906	25.3100 
822.413	0.0679	-0.2046	1.0410	-2.2577	-3.3563	11.3159	25.3200 
822.433	0.0996	-0.1938	1.0713	-3.1311	-3.0707	11.1127	25.3100 
822.453	0.1597	-0.1050	1.0171	-4.4934	-2.8564	11.1841	25.3100 
822.472	0.1255	0.2041	1.1567	-6.6302	-2.8619	12.0300	25.3400 
822.492	0.2891	0.7100	2.2388	-12.1289	-3.1201	14.0076	25.3500 
822.528	0.4609	0.1060	2.1284	-24.2908	-2.2577	16.3971	25.3200 
822.532	0.6377	0.4663	1.7168	-38.9630	-0.8405	18.5669	25.3000 
822.552	0.7021	0.1094	5.1143	-49.6527	3.4058	18.0505	25.3000 
822.572	1.1123	0.7568	2.9121	-50.9491	5.6250	18.3472	25.2900 
822.592	0.9424	0.4443	0.5483	-47.4609	5.9656	19.0887	25.2900 
822.612	0.8203	0.3140	0.5044	-43.1268	5.7019	18.9075	25.3100 
822.634	0.6289	0.2134	1.0356	-38.8641	4.9548	17.9736	25.2900 
822.651	0.3975	0.1035	1.2485	-34.0302	3.7189	16.8256	25.2900 
822.671	0.0845	-0.1177	1.2598	-27.9382	2.1039	15.5182	25.2800 
822.713	-0.1465	-0.2451	1.1514	-21.1981	0.6262	14.1064	25.2800 
822.716	-0.4072	-0.4238	1.1675	-14.4141	-0.6152	12.9034	25.2700 
822.731	-0.3916	-0.5298	1.2065	-8.0365	-1.7853	12.1893	25.2800 
822.751	-0.3252	-0.6001	1.4458	-2.0709	-2.8784	11.9037	25.2500 
822.771	-0.3262	-0.6084	1.6392	3.6420	-3.8617	11.7993	25.2500 
822.791	-0.3135	-0.7339	1.7637	9.1296	-4.9603	11.8323	25.2600 
822.811	-0.1074	-0.8633	1.8262	14.4196	-6.2787	12.0959	25.2500 
822.830	0.2173	-1.1074	1.9604	19.4238	-7.6794	12.8156	25.2500 
822.851	0.3228	-1.3076	1.9614	24.2084	-9.0143	13.5846	25.2500 
822.904	0.5024	-1.6680	1.4746	28.8062	-10.5963	13.8373	25.2500 
822.907	0.1548	-1.8364	0.8975	33.2007	-12.3431	12.7936	25.2600 
822.910	-0.7632	-2.7041	0.3696	37.0349	-13.6780	10.2173	25.2400 
822.932	-1.5586	-2.2715	-0.7134	39.6387	-12.6013	7.1246	25.2400 
822.950	-1.1055	-1.5508	-0.3584	38.0182	-10.5139	6.3611	25.2300 
822.970	-0.6738	0.7397	1.1196	33.9917	-7.7509	8.0255	25.2200 
822.990	0.2827	-0.3657	1.3438	28.6194	-6.5424	10.5249	25.2200 
823.010	-0.3701	-0.0708	1.6177	23.0438	-6.1963	11.1841	25.2200 
823.030	0.2026	-0.6509	2.5205	16.3092	-7.6410	11.9971	25.2700 
823.049	-0.2373	-0.1362	1.9385	11.9971	-9.3329	11.7938	25.2800 
823.069	0.0703	-0.0781	1.1968	10.6238	-9.5856	11.9147	25.2600 
823.089	0.0972	-0.0547	1.0996	10.0140	-9.6185	11.9971	25.2700 
823.146	0.1411	-0.0464	1.0059	9.4702	-9.6954	12.1289	25.2600 
823.148	0.1279	-0.0728	1.0488	9.0527	-9.8108	12.2662	25.2700 
823.150	0.1187	-0.0669	1.0425	8.5913	-9.9207	12.3651	25.2900 
823.169	0.1636	-0.0718	1.0234	8.1848	-10.0635	12.4475	25.2800 
823.189	0.1851	-0.0742	1.0015	7.8278	-10.2393	12.6013	25.2900 
823.208	0.1836	-0.0713	0.9819	7.5146	-10.4095	12.7991	25.2800 
823.228	0.1826	-0.0957	1.0059	7.1521	-10.5908	13.0188	25.2800 
823.248	0.1724	-0.0903	1.0098	6.7731	-10.7007	13.2825	25.2700 
823.269	0.1621	-0.0981	1.0161	6.3556	-10.6512	13.5681	25.2900 
823.288	0.1592	-0.0977	1.0151	5.8667	-10.4974	13.8483	25.2800 
823.339	0.1685	-0.0928	1.0015	5.3064	-10.2777	14.1559	25.2800 
823.341	0.1597	-0.0942	0.9946	4.6472	-9.9976	14.5294	25.2700 
823.348	0.1445	-0.1045	0.9946	3.8672	-9.6680	14.9744	25.2800 
823.368	0.1123	-0.1357	1.0171	2.9883	-9.2560	15.4193	25.2800 
823.388	0.1201	-0.1250	0.9990	2.1863	-8.7616	15.8038	25.2700 
823.408	0.1123	-0.1343	1.0054	1.3348	-8.2013	16.1444	25.2800 
823.427	0.0986	-0.1563	1.0161	0.3131	-7.5751	16.4246	25.2800 
823.447	0.0874	-0.2163	1.0352	-0.7910	-6.9598	16.6388	25.2700 
823.469	0.0806	-0.2153	1.0469	-1.5436	-6.3226	16.6937	25.2800 
823.487	0.0820	-0.2300	1.0381	-2.0325	-5.7129	16.6058	25.2800 
823.527	0.0806	-0.2402	1.0464	-2.4609	-5.1801	16.4740	25.2800 
823.529	0.0796	-0.1855	1.0430	-3.0487	-4.7571	16.3861	25.3100 
823.547	0.0620	-0.2085	1.0708	-4.0100	-4.4714	16.3586	25.3100 
823.567	0.1479	0.0337	1.0601	-5.5206	-4.2682	16.6003	25.2900 
823.586	0.1416	0.1089	1.1343	-8.0255	-4.1583	17.5012	25.2800 
823.606	0.0674	0.1465	1.9697	-14.4086	-4.1364	19.5557	25.3100 
823.626	0.5830	0.5557	2.0547	-25.5157	-3.5706	22.1375	25.3000 
823.646	0.6035	0.2070	2.0962	-39.2651	-1.4996	24.2029	25.2900 
823.669	0.4731	-0.6284	4.6733	-49.2188	2.7466	23.6920	25.2700 
823.730	1.1445	0.5820	2.1035	-50.0812	4.7241	23.7744	25.2800 
823.734	0.9839	0.4165	0.8076	-47.6697	5.2899	23.9996	25.2900 
823.734	0.7466	0.3013	0.5566	-43.7640	4.8889	23.4778	25.2700 
823.746	0.6846	0.2192	0.9204	-40.0012	4.0759	22.5110	25.2800 
823.766	0.3604	0.0747	1.2349	-35.5353	2.8894	21.2091	25.2800 
823.786	0.1328	-0.0420	1.1323	-29.8883	1.4886	19.8962	25.2700 
823.805	-0.1187	-0.2451	1.0190	-23.5162	0.0494	18.7427	25.2500 
823.826	-0.2246	-0.3696	1.0942	-17.2430	-1.3568	17.8967	25.2500 
823.846	-0.2627	-0.5190	1.2715	-11.3599	-2.7686	17.3969	25.2500 
823.865	-0.1890	-0.5854	1.3721	-5.6689	-4.1913	17.1387	25.2500 
823.927	-0.0913	-0.6304	1.5518	-0.0659	-5.5151	16.8750	25.2500 
823.931	-0.0293	-0.6543	1.6729	5.3119	-6.7401	16.4081	25.2500 
823.932	-0.0820	-0.6958	1.8203	10.6403	-7.8058	15.6226	25.2400 
823.945	-0.0894	-0.7725	1.8403	15.8807	-8.7012	14.6393	25.2300 
823.971	0.1470	-0.9116	1.8394	20.7367	-9.6844	13.9966	25.2200 
823.985	0.3364	-1.0522	1.8081	25.2411	-11.0193	14.2108	25.2400 
824.004	0.1523	-1.2813	1.2339	29.6851	-12.4365	14.2493	25.2100 
824.024	-0.1587	-1.4126	0.7227	33.9258	-14.3262	13.3704	25.2200 
824.044	-0.6133	-1.9976	0.4434	37.2546	-16.1224	11.8268	25.2300 
824.064	-1.0396	-2.0859	0.0713	39.4739	-15.6720	9.8712	25.2200 
824.114	-0.4390	-1.6045	0.5093	39.6606	-15.4028	9.3329	25.2200 
824.120	-0.2261	-1.7295	0.4341	37.5403	-16.0895	11.3379	25.2300 
824.124	-0.0068	0.8076	0.5513	33.6731	-14.0625	14.0350	25.2200 
824.144	0.1001	0.1455	0.7080	29.3280	-11.7883	15.8752	25.2000 
824.164	-0.9868	0.0005	1.3813	24.3567	-10.2777	15.9027	25.1900 
824.184	1.6470	-1.7402	3.7920	18.6218	-10.4480	16.0565	25.2100 
824.203	-0.4937	-0.1270	2.4150	12.9749	-11.7773	16.2048	25.2600 
824.223	0.0552	-0.1538	1.3745	10.5634	-12.2552	16.0016	25.2700 
824.246	0.0889	-0.0771	1.1201	9.6735	-12.1454	15.8752	25.2700 
824.263	0.1313	-0.0874	1.0327	9.0033	-12.0465	15.8862	25.2600 
824.286	0.1362	-0.0825	1.0313	8.4869	-12.0245	15.8917	25.2800 
824.303	0.1011	-0.0669	1.0273	7.9926	-11.9971	15.8972	25.2600 
824.353	0.1528	-0.0845	1.0293	7.4817	-12.0410	15.8478	25.2600 
824.355	0.1753	-0.1011	1.0044	7.0093	-12.1893	15.8807	25.2600 
824.363	0.1509	-0.0977	1.0103	6.5918	-12.3486	15.9576	25.2500 
824.382	0.1362	-0.1079	1.0313	6.1304	-12.4640	16.0400	25.2600 
824.402	0.1475	-0.1099	1.0142	5.7898	-12.5244	16.1279	25.2600 
824.423	0.1367	-0.1089	1.0161	5.4602	-12.5189	16.2378	25.2500 
824.442	0.1436	-0.1133	1.0181	5.1196	-12.4695	16.3367	25.2600 
824.463	0.1528	-0.1079	0.9985	4.7131	-12.3926	16.4740	25.2700 
824.482	0.1572	-0.1089	0.9976	4.1638	-12.2223	16.6663	25.2500 
824.502	0.1343	-0.1162	0.9990	3.5321	-11.9806	16.8805	25.2400 
824.542	0.1196	-0.1577	1.0352	2.8619	-11.6840	17.0892	25.2500 
824.544	0.1226	-0.1450	1.0073	2.2357	-11.3269	17.2595	25.2500 
824.562	0.1289	-0.1411	0.9961	1.6534	-10.9259	17.4188	25.2500 
824.581	0.1309	-0.1372	0.9956	0.9998	-10.4370	17.5781	25.2600 
824.601	0.1187	-0.1411	0.9937	0.2197	-9.8163	17.7319	25.2600 
824.621	0.0894	-0.2236	1.0435	-0.6702	-9.1571	17.8143	25.2600 
824.641	0.0752	-0.2153	1.0371	-1.3568	-8.5034	17.7814	25.2500 
824.661	0.0742	-0.2100	1.0405	-1.7688	-7.9321	17.6276	25.2700 
824.681	0.0654	-0.2339	1.0532	-2.2357	-7.4707	17.3859	25.2800 
824.734	0.0830	-0.2124	1.0693	-2.9333	-7.0642	17.1332	25.2800 
824.736	0.0728	-0.1748	1.0464	-3.8452	-6.6797	16.8970	25.2700 
824.741	0.1304	-0.1553	1.0156	-5.3174	-6.3391	16.8146	25.2800 
824.761	0.0879	0.1040	1.0654	-7.3444	-6.1249	17.1606	25.2800 
824.780	0.0776	0.1396	1.7285	-11.3214	-6.0754	18.5284	25.2900 
824.800	0.2886	0.5205	2.2163	-19.7589	-6.0864	20.7202	25.3000 
824.822	0.6353	0.1772	1.9600	-32.9095	-5.3723	23.4393	25.2800 
824.841	0.5239	-0.0552	3.1069	-46.2854	-2.2028	24.4775	25.2700 
824.860	1.0137	0.5913	3.8345	-51.3226	1.4282	23.3350	25.2600 
824.880	1.0552	0.5371	1.5591	-49.9823	2.7246	23.4283	25.2500 
824.930	0.8008	0.2246	0.3110	-46.1700	2.6477	23.3020	25.2700 
824.936	0.7158	0.2144	0.5010	-42.0062	2.2412	22.4341	25.2500 
824.941	0.5161	0.1875	1.1626	-37.9248	1.5216	21.1816	25.2400 
824.959	0.2900	0.1465	1.2671	-32.9919	0.3351	19.8358	25.2400 
824.979	-0.0815	-0.0796	1.0229	-26.8506	-1.0876	18.5010	25.2400 
824.999	-0.2285	-0.2222	0.9722	-20.2972	-2.3730	17.2870	25.2300 
825.019	-0.3564	-0.4014	1.2529	-14.0350	-3.4387	16.4850	25.2300 
825.039	-0.4165	-0.5229	1.3442	-8.0530	-4.4934	16.2653	25.2300 
825.059	-0.3481	-0.6646	1.4224	-2.2577	-5.7458	16.6168	25.2200 
825.079	-0.1655	-0.6606	1.5806	3.1805	-7.2565	17.3694	25.2300 
825.099	0.0620	-0.6450	1.7168	8.3386	-8.9154	17.9022	25.2300 
825.119	0.0571	-0.6646	1.8003	13.3429	-10.3271	17.7429	25.2200 
825.183	0.1069	-0.7681	1.9561	18.1055	-11.3928	17.1167	25.2100 
825.186	0.2246	-0.8882	1.8940	22.6758	-12.2992	16.4520	25.2100 
825.186	0.2695	-1.1338	1.5620	27.1362	-13.2825	15.7324	25.2000 
825.199	-0.0054	-1.3179	1.2051	31.6077	-14.3262	14.3976	25.2100 
825.219	-0.7158	-1.8765	0.6304	35.7880	-14.5404	11.8762	25.2000 
825.238	-1.3052	-2.4077	0.2119	39.1663	-12.9968	8.5693	25.2000 
825.258	-0.5757	-1.6162	-0.4604	40.2264	-12.3212	6.9653	25.2100 
825.278	-0.6421	-1.7705	0.3159	38.2983	-10.8765	7.2620	25.1900 
825.300	0.1060	0.2139	0.9292	34.2773	-9.1681	10.0305	25.2000 
825.318	1.1187	0.1841	0.7407	30.0421	-8.0420	13.1287	25.1800 
825.399	-0.7593	-0.1709	1.6279	25.2686	-7.2675	14.8315	25.1800 
825.403	0.8638	-1.0347	3.6191	20.3192	-7.2180	15.0128	25.1900 
825.403	-0.6357	-0.1030	2.2500	15.5072	-8.6078	15.2545	25.2400 
825.403	0.1782	-0.1255	1.3115	12.8430	-9.6130	14.8425	25.2400 
825.417	0.1641	-0.0815	1.1084	11.6345	-9.8273	14.6777	25.2300 
825.437	0.1362	-0.0684	1.0728	11.0687	-9.9316	14.6448	25.2500 
825.457	0.1216	-0.0498	1.0605	10.6732	-10.1019	14.6667	25.2300 
825.477	0.1377	-0.0503	1.0049	10.2228	-10.3162	14.6667	25.2400 
825.497	0.1284	-0.0439	1.0137	9.8602	-10.5029	14.6338	25.2400 
825.534	0.1538	-0.0698	1.0234	9.4922	-10.7721	14.5898	25.2400 
825.538	0.1689	-0.0654	1.0054	9.2615	-11.1182	14.5789	25.2500 
825.558	0.1724	-0.0762	1.0142	9.0472	-11.4807	14.6063	25.2300 
825.578	0.1880	-0.0649	0.9849	8.8495	-11.8268	14.6613	25.2400 
825.596	0.2314	-0.0425	0.9321	8.6682	-12.0959	14.7986	25.2500 
825.617	0.2168	-0.0571	0.9761	8.3826	-12.1838	15.0018	25.2500 
825.636	0.1914	-0.0967	1.0332	7.9266	-12.1344	15.2380	25.2500 
825.656	0.2090	-0.0938	1.0098	7.4048	-11.9037	15.4907	25.2400 
825.676	0.1812	-0.0947	1.0210	6.7950	-11.6400	15.7599	25.2400 
825.697	0.1621	-0.0991	1.0254	6.1688	-11.3489	16.0400	25.2400 
825.716	0.1646	-0.0776	0.9937	5.6085	-11.0577	16.3257	25.2500 
825.736	0.1567	-0.0791	0.9780	5.0647	-10.7391	16.6608	25.2400 
825.774	0.1318	-0.0908	0.9985	4.4110	-10.2777	17.0123	25.2500 
825.775	0.1318	-0.1396	1.0068	3.5760	-9.7009	17.3804	25.2500 
825.795	0.1167	-0.1499	1.0293	2.6752	-8.9758	17.6605	25.2500 
825.816	0.1172	-0.1685	1.0278	1.8182	-8.2507	17.8528	25.2500 
825.835	0.1152	-0.1685	1.0205	1.1536	-7.5476	17.9242	25.2600 
825.855	0.1118	-0.2119	1.0430	0.5988	-6.8939	17.9462	25.2600 
825.875	0.0874	-0.1748	1.0840	0.2032	-6.3007	17.8912	25.2500 
825.895	0.0874	-0.1602	1.0767	-0.3845	-5.8008	17.8308	25.2500 
825.914	0.0586	-0.1689	1.0908	-1.5271	-5.3723	17.7594	25.2600 
825.962	0.1099	-0.0391	1.0493	-3.1421	-5.0592	17.7979	25.2700 
825.966	0.0508	0.2544	1.1177	-5.4382	-4.8724	18.2318	25.2600 
825.974	0.0068	0.5991	1.4976	-9.5251	-4.7955	19.3744	25.2600 
825.994	0.4463	0.2290	1.9854	-19.1711	-4.9329	21.4508	25.2800 
826.014	0.5635	0.2021	1.8345	-31.8219	-5.0977	23.8898	25.2700 
826.039	0.7056	-1.6167	3.7339	-44.6814	-2.9663	24.9500	25.2600 
826.056	1.1182	0.6401	4.4087	-51.3831	0.2252	23.3295	25.2500 
826.074	0.7964	0.7051	1.4482	-50.6689	1.4667	22.1484	25.2300 
826.094	0.5845	0.4282	0.5991	-47.0380	1.4502	21.2860	25.2500 
826.115	0.5225	0.2881	0.7881	-42.4237	1.1810	20.0446	25.2500 
826.151	0.4126	0.1924	1.1279	-37.3645	1.0492	18.4186	25.2300 
826.154	0.2432	-0.0073	1.1113	-31.8384	0.8624	16.8640	25.2400 
826.173	0.2061	-0.1616	1.0410	-25.6586	0.4449	15.6665	25.2400 
826.193	0.0859	-0.3672	1.0601	-19.0997	-0.0110	14.7052	25.2200 
826.213	0.0801	-0.4639	1.1250	-12.7332	-0.6262	14.0131	25.2300 
826.235	0.2671	-0.6250	1.2983	-6.9818	-1.6425	13.5626	25.2200 
826.253	0.3379	-0.6904	1.4644	-1.3953	-2.9224	12.8650	25.2200 
826.273	0.2529	-0.7515	1.5513	4.1858	-4.2023	11.4642	25.2200 
826.294	0.2124	-0.7979	1.6113	9.4867	-5.3613	9.3988	25.2100 
826.315	-0.0210	-0.9312	1.9810	14.3536	-5.8832	6.5204	25.2100 
826.333	-0.2900	-1.0459	2.0596	19.2371	-5.4657	3.1750	25.1900 
826.358	-0.4805	-1.2114	1.7471	24.3018	-4.6307	0.6152	25.2000 
826.393	-0.3896	-1.4653	1.3501	29.2126	-4.0704	-0.8899	25.2000 
826.394	-0.5112	-1.9468	0.7500	33.3215	-4.1803	-1.2909	25.1900 
826.412	-0.4282	-2.3599	0.4067	36.3208	-5.1855	-1.1646	25.1900 
826.434	-0.0576	-2.8042	-0.6406	37.1942	-7.1851	0.1978	25.1900 
826.452	-0.0747	-2.3462	-0.6768	35.1892	-8.3057	3.2465	25.2000 
826.472	0.7852	0.2690	1.6992	30.7233	-7.1686	6.5259	25.1900 
826.492	0.0854	-0.2900	1.4839	25.6915	-5.9106	8.1519	25.1600 
826.512	-0.1401	0.4766	2.7124	20.9949	-5.3119	8.0804	25.1900 
826.532	0.8315	-0.6431	1.8169	15.5237	-6.5753	8.8055	25.1900 
826.578	-0.2935	-0.0850	2.0078	12.2498	-7.7454	8.1628	25.2200 
826.580	0.0005	-0.0684	1.2456	10.5688	-7.8827	7.9596	25.2300 
826.591	0.1367	-0.0830	1.1064	9.7284	-7.7069	7.9047	25.2200 
826.611	0.1172	-0.0811	1.0552	9.1187	-7.5311	7.7893	25.2200 
826.631	0.1162	-0.0723	1.0557	8.6572	-7.4707	7.6575	25.2200 
826.651	0.1011	-0.0669	1.0552	8.1573	-7.4872	7.4872	25.2200 
826.671	0.1636	-0.0815	1.0313	7.6740	-7.6355	7.3553	25.2200 
826.691	0.1479	-0.0923	1.0098	7.1136	-7.8223	7.3169	25.2200 
826.710	0.1343	-0.1089	1.0151	6.5424	-7.9431	7.2894	25.2200 
826.731	0.1523	-0.0957	1.0010	6.1304	-8.0310	7.2894	25.2200 
826.768	0.1479	-0.0991	1.0078	5.7733	-8.0310	7.3169	25.2300 
826.770	0.1377	-0.1143	1.0142	5.3998	-7.8992	7.3718	25.2400 
826.790	0.1489	-0.1035	0.9961	4.9823	-7.7014	7.4542	25.2300 
826.810	0.1323	-0.0850	0.9824	4.4879	-7.4817	7.6135	25.2300 
826.830	0.1055	-0.1328	1.0313	3.8287	-7.1906	7.8058	25.2200 
826.850	0.0864	-0.1357	1.0283	3.0762	-6.8335	7.9431	25.2200 
826.870	0.0933	-0.1382	1.0220	2.3126	-6.4545	8.0200	25.2300 
826.889	0.1074	-0.1494	1.0142	1.4886	-6.0645	8.0475	25.2400 
826.910	0.1045	-0.1499	1.0132	0.5383	-5.6140	8.0804	25.2300 
826.957	0.0840	-0.1992	1.0186	-0.3955	-5.0372	8.0750	25.2400 
826.963	0.0791	-0.2124	1.0234	-1.0547	-4.4385	8.0200	25.2300 
826.969	0.0630	-0.2212	1.0313	-1.4996	-3.9441	7.8387	25.2400 
826.989	0.0552	-0.2231	1.0337	-1.8896	-3.5541	7.5531	25.2400 
827.009	0.0586	-0.2153	1.0459	-2.2137	-3.2135	7.1741	25.2400 
827.030	0.0640	-0.2207	1.0190	-2.7576	-2.8729	6.7950	25.2300 
827.049	0.1104	-0.1680	1.0537	-3.6255	-2.6312	6.5643	25.2400 
827.069	0.1279	-0.1201	0.9897	-5.0098	-2.4170	6.6248	25.2400 
827.089	0.1265	-0.0156	1.1455	-7.2455	-2.2906	7.4652	25.2600 
827.108	0.0859	0.3765	1.7695	-11.9641	-2.1423	9.2780	25.2800 
827.128	0.4043	0.0684	2.0020	-21.6321	-1.5161	11.9751	25.2600 
827.148	0.7363	0.3032	1.9106	-34.8541	0.7361	14.2438	25.2500 
827.199	0.4688	-0.8691	4.5254	-46.2085	5.9436	13.3923	25.2500 
827.203	1.0361	0.5586	3.0034	-48.8672	8.3661	12.6617	25.2500 
827.208	1.0171	0.3887	0.5581	-46.7249	7.9431	13.2715	25.2500 
827.227	0.7241	0.2520	0.4321	-43.6981	6.7896	12.8101	25.2300 
827.248	0.3872	0.2246	0.9385	-40.4242	5.5920	11.5192	25.2400 
827.268	0.2144	0.1523	1.1855	-36.2988	4.2023	10.2283	25.2300 
827.288	-0.0239	-0.0176	1.1636	-31.1902	2.6807	9.1406	25.2100 
827.308	-0.1758	-0.1499	1.0649	-25.4828	1.2415	8.2727	25.2200 
827.331	-0.3193	-0.3071	1.0718	-19.5996	-0.0769	7.7179	25.2200 
827.347	-0.4023	-0.3672	1.2056	-13.8318	-1.3513	7.5037	25.2200 
827.391	-0.4683	-0.4419	1.3140	-8.2892	-2.5543	7.6300	25.2200 
827.394	-0.4165	-0.4717	1.4165	-2.9224	-3.7024	8.0530	25.1900 
827.407	-0.2651	-0.5103	1.5762	2.3126	-4.8560	8.7286	25.2000 
827.427	-0.1187	-0.5562	1.5386	7.4103	-6.1414	9.3713	25.2100 
827.446	0.0088	-0.6362	1.5732	12.1124	-7.4762	9.7614	25.2000 
827.466	0.1299	-0.6362	1.6309	16.4410	-8.7067	9.8657	25.2200 
827.486	0.4087	-0.7095	1.7886	20.4346	-9.7394	9.7723	25.2100 
827.506	0.4766	-0.8442	1.7012	24.3622	-10.6787	9.2834	25.2100 
827.526	0.3716	-1.1289	1.3589	28.3667	-11.7334	8.0750	25.1900 
827.591	-0.1655	-1.2642	0.9478	32.4701	-12.7441	6.2567	25.1800 
827.594	-0.9639	-2.0591	0.7256	36.2164	-11.6345	1.9720	25.2000 
827.594	-1.5962	-2.5552	0.0220	38.8641	-10.2997	-1.2579	25.1900 
827.606	-0.9937	-2.3506	-0.3291	38.1665	-8.8165	-1.6150	25.1700 
827.626	-0.6230	-0.5659	0.7271	34.5135	-6.0754	0.4065	25.1700 
827.646	0.8970	0.3608	0.8701	30.1575	-4.3506	3.8287	25.1600 
827.666	-0.4590	-0.3911	1.7656	24.9005	-3.3893	5.7953	25.1300 
827.686	0.0171	0.0508	2.4419	19.3359	-3.3124	5.9271	25.1600 
827.705	-0.6816	-0.2090	2.2554	13.7054	-4.4440	6.6138	25.1900 
827.725	0.2515	-0.1958	1.4028	10.5688	-5.8667	6.3776	25.2200 
827.778	0.1348	-0.0625	1.1143	9.1351	-6.3940	6.2238	25.2300 
827.781	0.1069	-0.0786	1.0967	8.2507	-6.6193	6.2128	25.2000 
827.785	0.1050	-0.0830	1.0698	7.5751	-6.8445	6.2512	25.2300 
827.805	0.1377	-0.0913	1.0283	7.0038	-7.1136	6.2787	25.2100 
827.825	0.1548	-0.0723	1.0049	6.5973	-7.3059	6.2787	25.2200 
827.845	0.1787	-0.0923	1.0151	6.2787	-7.5092	6.3226	25.2200 
827.865	0.1724	-0.1128	1.0244	5.9491	-7.6740	6.4270	25.2000 
827.884	0.1641	-0.1040	1.0117	5.6744	-7.8113	6.5314	25.2200 
827.904	0.1733	-0.1143	1.0186	5.4547	-7.9980	6.6357	25.2100 
827.924	0.1699	-0.1060	1.0132	5.2460	-8.1134	6.7566	25.2200 
827.944	0.1563	-0.1108	1.0190	4.9988	-8.1244	6.8719	25.2300 
827.964	0.1660	-0.1074	1.0059	4.6692	-8.0585	6.9983	25.2200 
828.020	0.1436	-0.1011	1.0010	4.2517	-7.9156	7.1741	25.2200 
828.024	0.1748	-0.1069	0.9976	3.8068	-7.7673	7.3608	25.2100 
828.027	0.1646	-0.1079	0.9883	3.2849	-7.5311	7.6355	25.2100 
828.044	0.1406	-0.1064	0.9839	2.7081	-7.2400	7.9486	25.2200 
828.063	0.1216	-0.1387	1.0112	2.0929	-6.8774	8.2782	25.2300 
828.083	0.1113	-0.1353	1.0059	1.4612	-6.3446	8.5858	25.2300 
828.103	0.1147	-0.1392	1.0073	0.7031	-5.7239	8.8275	25.2100 
828.123	0.1133	-0.1543	1.0190	-0.2032	-5.0977	9.0088	25.2200 
828.145	0.0908	-0.2554	1.0703	-1.1700	-4.4604	9.1022	25.2200 
828.163	0.0840	-0.2158	1.0347	-1.8182	-3.8177	9.0967	25.2400 
828.209	0.0771	-0.2134	1.0596	-2.3126	-3.2465	8.9978	25.2200 
828.211	0.0713	-0.2446	1.0728	-3.0927	-2.8400	8.8660	25.2200 
828.223	0.0415	-0.1694	1.0947	-4.0979	-2.5104	8.7231	25.2400 
828.244	0.1147	-0.1221	1.0542	-5.3888	-2.2687	8.6462	25.2200 
828.262	0.1440	-0.0728	1.1655	-7.5201	-2.2522	9.0967	25.2300 
828.282	0.0586	0.5034	1.7573	-12.2717	-2.3071	10.4700	25.2600 
828.302	0.3169	0.0103	2.2246	-22.5879	-2.3950	12.6123	25.2400 
828.322	0.6890	0.2915	1.8706	-36.6724	-2.4280	15.4248	25.2300 
828.345	0.5386	-0.3013	5.3564	-48.1146	0.7471	15.8588	25.2100 
828.362	0.8555	0.8745	3.0854	-49.6088	3.8837	15.5127	25.2100 
828.408	1.0566	0.5386	0.5083	-46.3678	5.3668	16.3092	25.2100 
828.411	1.1187	0.3789	0.4624	-42.1545	5.7733	16.8091	25.2100 
828.421	0.9160	0.3179	0.9971	-37.6227	5.2570	16.5564	25.2000 
828.441	0.5508	0.2344	1.1069	-32.8162	3.9386	15.6555	25.1800 
828.461	-0.0259	-0.0005	1.1255	-27.1912	2.1368	14.3262	25.1800 
828.481	-0.2905	-0.1509	1.1846	-20.9894	0.4395	12.9144	25.1800 
828.501	-0.4766	-0.3467	1.3799	-14.4415	-0.8130	11.8707	25.1700 
828.521	-0.4385	-0.4980	1.4561	-8.0200	-1.7743	11.3544	25.1700 
828.541	-0.1914	-0.6250	1.5161	-2.0599	-2.6477	11.5137	25.1700 
828.601	-0.0068	-0.6460	1.5693	3.5266	-3.5980	11.9147	25.1600 
828.602	0.0386	-0.6650	1.6211	8.6462	-4.6747	12.0850	25.1700 
828.602	0.0576	-0.7783	1.8032	13.3264	-5.8118	12.0300	25.1700 
828.620	0.1978	-1.0068	2.0942	17.7429	-6.9434	11.8872	25.1700 
828.640	0.3604	-1.2100	1.8320	22.2473	-8.1958	11.7334	25.1600 
828.661	0.1807	-1.5757	1.3457	26.7572	-9.6954	11.1237	25.1600 
828.681	-0.0781	-1.8501	1.0693	31.1682	-11.2610	9.5032	25.1600 
828.700	-0.6318	-2.1362	0.5562	35.2386	-10.9698	6.5808	25.1500 
828.720	-1.1567	-2.4683	-0.0415	37.8754	-9.4208	4.0540	25.1700 
828.740	-0.5210	-2.3364	-0.3984	38.0127	-8.4869	3.1860	25.1400 
828.787	-0.3491	-0.8696	0.4712	34.6729	-6.5753	4.2682	25.1600 
828.790	0.4268	0.4863	0.9980	30.3278	-4.8889	5.9161	25.1500 
828.800	-0.8408	-0.2739	1.4854	25.0543	-3.6530	6.9598	25.1200 
828.820	-0.5649	-0.1201	2.3032	19.4623	-3.8342	6.7566	25.1400 
828.839	-0.0454	-0.2183	1.8369	13.1506	-5.6525	7.5201	25.1900 
828.861	0.0991	-0.0986	1.4897	10.3162	-6.5204	7.4323	25.2100 
828.879	0.1289	-0.0864	1.1304	9.2120	-6.5424	7.6575	25.2000 
828.898	0.0854	-0.0527	1.0947	8.6462	-6.5094	7.9431	25.2000 
828.919	0.1167	-0.0762	1.0508	8.0914	-6.4984	8.2343	25.1900 
828.939	0.1426	-0.0898	1.0371	7.6025	-6.5314	8.5089	25.2000 
828.961	0.1064	-0.0708	1.0332	7.1521	-6.5918	8.7286	25.2000 
828.979	0.1421	-0.0806	1.0171	6.7621	-6.7456	8.9374	25.2100 
829.041	0.1553	-0.0884	1.0122	6.4050	-7.0148	9.1901	25.2000 
829.043	0.1685	-0.1206	1.0308	6.0370	-7.2784	9.4867	25.2000 
829.043	0.1611	-0.0854	0.9956	5.7239	-7.4268	9.8163	25.2000 
829.058	0.1567	-0.0933	1.0029	5.3833	-7.4982	10.1733	25.2000 
829.078	0.1431	-0.1021	1.0156	4.9713	-7.4652	10.5743	25.2100 
829.098	0.1338	-0.1177	1.0259	4.4550	-7.3608	11.0028	25.2000 
829.118	0.1450	-0.1069	1.0039	3.8562	-7.2070	11.4697	25.1800 
829.138	0.1279	-0.1543	1.0278	3.1531	-7.0038	11.9696	25.1900 
829.160	0.1221	-0.1289	1.0054	2.4445	-6.7346	12.4420	25.2000 
829.180	0.1094	-0.1318	1.0083	1.6754	-6.4105	12.8925	25.2000 
829.227	0.1069	-0.1411	0.9980	0.8514	-6.0370	13.3209	25.2200 
829.229	0.0918	-0.1724	1.0146	-0.0385	-5.5920	13.7164	25.2000 
829.238	0.0918	-0.2153	1.0371	-1.0162	-5.0977	14.0460	25.2000 
829.257	0.0869	-0.2192	1.0278	-1.7963	-4.5813	14.2712	25.2000 
829.277	0.0850	-0.2241	1.0376	-2.2522	-4.0649	14.3646	25.1900 
829.297	0.0776	-0.2363	1.0410	-2.6093	-3.5870	14.3921	25.2000 
829.317	0.0957	-0.1924	1.0454	-3.0542	-3.1201	14.4086	25.2100 
829.337	0.0703	-0.2017	1.0566	-3.8507	-2.7356	14.4855	25.2100 
829.359	0.1177	-0.1089	1.0488	-5.0757	-2.4774	14.7437	25.2200 
829.377	0.0898	0.1162	1.0664	-6.8994	-2.2961	15.4468	25.2200 
829.415	0.1104	0.5332	1.8599	-10.7886	-2.3291	17.2540	25.2600 
829.418	0.2344	0.1934	2.0859	-19.9896	-2.0819	20.1764	25.2500 
829.438	0.6265	0.1221	1.6338	-33.0359	-0.9723	23.2471	25.2200 
829.456	0.1982	-1.3228	3.4976	-45.8954	2.9828	24.4281	25.2200 
829.477	1.0342	0.5151	3.0874	-50.4382	6.4325	24.4336	25.2200 
829.496	1.1240	0.4409	0.9873	-48.5321	7.4597	25.2960	25.2200 
829.516	0.8579	0.1782	0.1924	-44.9561	7.3389	25.2686	25.2100 
829.536	0.7666	0.1567	0.5093	-41.5173	6.5808	24.4720	25.1900 
829.556	0.4932	0.1016	1.2031	-37.9797	5.2240	23.2855	25.2000 
829.603	0.2158	0.0107	1.3037	-33.4039	3.5431	21.8079	25.1900 
829.605	-0.1943	-0.1748	1.0620	-27.5647	1.9995	20.2258	25.2000 
829.619	-0.3091	-0.3354	1.0967	-21.3959	0.7031	18.9624	25.2000 
829.635	-0.3472	-0.4839	1.1323	-15.4028	-0.5383	18.3966	25.1900 
829.655	-0.3345	-0.5625	1.1924	-9.6460	-1.7578	18.2867	25.1700 
829.675	-0.1812	-0.6187	1.3569	-4.2188	-2.9279	18.5944	25.1800 
829.695	0.0020	-0.6230	1.5103	0.9064	-4.0704	19.0668	25.1700 
829.715	0.0854	-0.6172	1.6152	5.8337	-5.3064	19.3085	25.1600 
829.734	0.0356	-0.6416	1.6719	10.6183	-6.6907	19.1711	25.1600 
829.755	0.0527	-0.7397	1.8628	15.0403	-8.1519	18.7427	25.1800 
829.779	0.1753	-0.7891	1.8076	19.2480	-9.4537	18.2483	25.1700 
829.795	0.3003	-0.8960	1.6499	23.3075	-10.5359	17.7045	25.1500 
829.854	0.1851	-1.0537	1.1377	27.2461	-11.5082	16.8201	25.1500 
829.856	-0.1396	-1.1221	0.8301	30.9045	-12.5299	15.4468	25.1600 
829.856	-0.6372	-1.4712	0.6904	33.9038	-13.0078	13.5022	25.1700 
829.874	-0.9790	-1.6953	0.3623	36.2878	-12.0630	11.0852	25.1600 
829.894	-0.4180	-1.4634	0.2754	37.1173	-11.6180	10.0470	25.1400 
829.914	-0.0356	-1.2793	0.3296	35.6561	-12.6837	11.9257	25.1400 
829.934	-0.0405	-0.5791	0.5186	32.1625	-11.7499	15.1172	25.1200 
829.954	0.3667	0.6045	0.7690	28.5864	-9.6075	16.7761	25.1500 
829.973	-1.1079	-0.2529	1.5059	24.0546	-8.0530	17.0233	25.1100 
829.996	-0.4829	0.0698	1.7979	19.4897	-7.9926	16.7102	25.1300 
830.040	0.2456	-0.5537	1.9722	13.8153	-8.9484	17.5342	25.1800 
830.042	-0.0889	-0.1074	1.6641	10.1953	-9.7668	17.2540	25.2000 
830.053	0.0352	-0.0923	1.2559	8.5144	-9.9481	17.3694	25.1900 
830.073	0.0488	-0.0825	1.1616	7.7673	-9.8822	17.5616	25.1800 
830.093	0.0776	-0.0767	1.0669	7.2070	-9.8218	17.6990	25.1900 
830.113	0.1235	-0.0791	1.0210	6.9049	-9.8438	17.7594	25.1900 
830.133	0.1143	-0.0645	1.0234	6.7126	-9.9701	17.7814	25.2000 
830.153	0.1636	-0.0503	0.9976	6.5314	-10.1514	17.8033	25.1900 
830.175	0.1714	-0.0649	0.9932	6.2787	-10.3711	17.9352	25.2000 
830.227	0.1431	-0.0786	0.9995	5.9161	-10.5414	18.0945	25.2000 
830.228	0.1592	-0.0742	1.0000	5.6030	-10.7446	18.2538	25.1900 
830.232	0.1724	-0.0835	1.0049	5.3009	-10.9534	18.4460	25.1900 
830.252	0.1641	-0.1045	1.0249	4.9438	-10.9204	18.6932	25.2000 
830.272	0.1572	-0.0938	1.0068	4.5209	-10.7391	18.9294	25.1900 
830.292	0.1509	-0.0825	1.0059	4.0045	-10.4974	19.1876	25.1900 
830.312	0.1343	-0.1016	1.0229	3.3948	-10.2228	19.4733	25.2100 
830.332	0.1274	-0.1182	1.0195	2.7740	-9.9261	19.8029	25.1900 
830.352	0.1113	-0.1431	1.0410	2.1973	-9.6130	20.1105	25.1900 
830.374	0.1138	-0.1382	1.0142	1.6479	-9.2834	20.3851	25.1800 
830.414	0.1201	-0.1357	0.9971	1.1206	-8.8989	20.6049	25.2000 
830.417	0.1201	-0.1313	0.9937	0.5878	-8.4375	20.7971	25.2000 
830.433	0.1133	-0.1343	1.0073	-0.0604	-7.9047	20.9674	25.2000 
830.451	0.0786	-0.2051	1.0532	-0.9723	-7.3169	21.1377	25.1900 
830.471	0.0889	-0.2100	1.0288	-1.8951	-6.7346	21.2750	25.2100 
830.492	0.0815	-0.1914	1.0249	-2.5323	-6.1963	21.3354	25.1900 
830.512	0.0664	-0.2212	1.0352	-3.1311	-5.7733	21.3245	25.1900 
830.531	0.0542	-0.2339	1.0464	-3.8342	-5.4108	21.2640	25.1900 
830.551	0.0527	-0.2178	1.0430	-4.5703	-5.0317	21.1432	25.1900 
830.571	0.0547	-0.2080	1.0342	-5.4987	-4.6747	21.0168	25.2000 
830.590	0.0942	-0.2422	0.9609	-6.8280	-4.3176	20.9949	25.1800 
830.611	0.0708	0.0786	1.0669	-8.3167	-4.0979	21.2860	25.2200 
830.658	0.1069	0.3433	1.2993	-10.9589	-4.0540	22.2858	25.2300 
830.660	0.2095	0.0845	1.8027	-17.6111	-3.9276	24.2029	25.2200 
830.670	0.3564	-0.1284	1.9028	-28.5205	-3.3069	26.4990	25.2100 
830.690	0.4824	0.2471	1.6055	-41.6711	-1.9940	29.0533	25.2200 
830.711	0.3779	-1.3218	4.9990	-53.1134	1.7468	29.6466	25.2000 
830.730	1.0723	0.4849	2.1265	-54.0417	4.0430	30.4047	25.2100 
830.750	1.0493	0.2998	0.6689	-51.0425	4.8889	31.4539	25.2000 
830.770	0.8716	0.0688	0.4346	-46.9775	4.9219	31.1188	25.1800 
830.789	0.6650	0.0986	0.9189	-42.3853	4.5703	29.9487	25.1900 
830.810	0.3457	-0.0005	1.2983	-36.8152	3.3948	28.7567	25.2000 
830.848	0.0830	-0.1929	1.1533	-31.1737	1.7249	27.7350	25.1900 
830.850	-0.2617	-0.4014	0.9927	-25.2136	0.0275	26.8945	25.1700 
830.871	-0.3896	-0.4722	1.0493	-19.0393	-1.5436	26.3177	25.1700 
830.889	-0.3867	-0.5459	1.1943	-12.9309	-2.9608	26.1420	25.1600 
830.909	-0.3042	-0.5952	1.2705	-7.4707	-4.2737	26.2848	25.1600 
830.930	-0.2153	-0.6089	1.3091	-2.5818	-5.5042	26.5320	25.1700 
830.949	-0.0205	-0.6079	1.4287	2.0325	-6.8060	26.7572	25.1500 
830.969	0.1089	-0.5942	1.4717	6.4325	-8.1793	26.7737	25.1600 
830.991	0.2261	-0.5391	1.6558	10.6073	-9.5306	26.3507	25.1500 
831.037	0.2739	-0.5264	1.7871	14.7327	-10.6677	25.4004	25.1500 
831.040	0.3481	-0.6074	1.7202	19.0009	-11.6400	23.9777	25.1500 
831.060	0.3296	-0.6851	1.6108	23.4448	-12.3816	21.9946	25.1600 
831.068	-0.0557	-0.7754	1.1489	27.7625	-12.7551	19.6655	25.1500 
831.088	-0.3647	-0.8340	0.9917	31.8549	-12.1454	16.3641	25.1300 
831.108	-0.7710	-0.8662	0.8071	35.2661	-10.5249	12.8375	25.1400 
831.128	-0.8745	-0.9468	0.7290	37.6831	-9.2670	10.6458	25.1600 
831.148	-0.4609	-1.0938	0.4434	39.1937	-8.4595	9.7668	25.1600 
831.168	-0.1563	-1.0586	0.4219	39.5782	-8.5913	10.6238	25.1500 
831.189	0.0674	-1.0513	0.2036	38.9136	-9.3494	12.7002	25.1600 
831.228	-0.1250	-2.3867	-0.4326	36.4197	-9.7943	15.0238	25.1300 
831.230	0.5000	0.1045	1.2915	31.6681	-9.8492	17.1497	25.1200 
831.247	-0.2549	-0.2451	1.3726	25.1697	-9.2285	18.1274	25.1000 
831.267	2.2339	-2.5703	5.3096	17.8857	-9.9701	18.8910	25.1300 
831.287	-0.8789	-0.5313	2.8892	11.0522	-10.4865	19.3524	25.1600 
831.308	-0.0156	-0.0371	1.2773	7.6465	-11.0852	19.4513	25.1700 
831.327	0.2324	-0.1528	1.1870	5.9436	-11.1841	19.6490	25.1800 
831.347	0.1089	-0.2388	1.2451	5.1141	-10.9039	19.9567	25.1800 
831.367	0.0908	-0.1704	1.1616	4.8560	-10.6073	20.1929	25.1700 
831.388	0.0591	-0.0962	1.0605	4.8779	-10.4480	20.3082	25.1900 
831.406	0.0708	-0.0747	1.0264	5.0427	-10.4480	20.2698	25.1800 
831.426	0.1265	-0.0498	0.9800	5.4163	-10.6293	20.1379	25.1900 
831.476	0.1353	-0.0400	0.9868	5.7294	-10.9149	20.0061	25.1800 
831.479	0.1304	-0.0376	0.9912	5.8832	-11.1401	19.9182	25.1600 
831.486	0.1221	-0.0498	1.0054	5.8997	-11.3159	19.8578	25.1800 
831.506	0.1133	-0.0386	0.9922	5.9106	-11.4752	19.7644	25.1800 
831.526	0.1294	0.0049	0.9458	6.0095	-11.6071	19.6271	25.1900 
831.545	0.1738	-0.0547	0.9854	5.8502	-11.7938	19.5502	25.1600 
831.566	0.1987	-0.0669	0.9956	5.4492	-11.9476	19.5502	25.1800 
831.586	0.1787	-0.0820	1.0181	4.9933	-12.0081	19.6216	25.1800 
831.605	0.1714	-0.0693	1.0010	4.5374	-12.0740	19.7314	25.1800 
831.625	0.1514	-0.0781	1.0195	4.1528	-12.1179	19.8468	25.1900 
831.662	0.1826	-0.1250	1.0537	3.8892	-12.1948	19.9567	25.1800 
831.665	0.1724	-0.0864	1.0146	3.6035	-12.1838	20.0775	25.1800 
831.685	0.1641	-0.0845	1.0068	3.3069	-12.0795	20.2039	25.1600 
831.705	0.1606	-0.0981	1.0176	2.9663	-11.9366	20.3467	25.1700 
831.724	0.1606	-0.1079	1.0283	2.5488	-11.7938	20.4895	25.1900 
831.744	0.1553	-0.1104	1.0190	2.0380	-11.6345	20.6433	25.1700 
831.764	0.1577	-0.1089	1.0044	1.4886	-11.3983	20.7916	25.1800 
831.784	0.1553	-0.1572	1.0254	0.9229	-11.0468	20.9674	25.1800 
831.807	0.1660	-0.1406	1.0083	0.3955	-10.6458	21.1267	25.1900 
831.854	0.1460	-0.1333	1.0063	-0.1538	-10.2338	21.2915	25.1900 
831.856	0.1309	-0.1494	1.0103	-0.7800	-9.7559	21.4783	25.1800 
831.864	0.1084	-0.1650	1.0229	-1.5161	-9.2670	21.6431	25.1900 
831.884	0.0986	-0.1753	1.0254	-2.2961	-8.8055	21.7859	25.1900 
831.904	0.0952	-0.1953	1.0161	-3.1091	-8.4265	21.9067	25.1900 
831.923	0.0977	-0.2056	1.0078	-3.9111	-8.1354	22.0111	25.1800 
831.944	0.1069	-0.2021	0.9990	-4.5648	-7.8662	22.1155	25.1900 
831.964	0.0986	-0.2300	1.0122	-5.1581	-7.6080	22.2418	25.1900 
831.983	0.0806	-0.2383	1.0083	-5.6580	-7.3663	22.3462	25.1900 
832.007	0.0781	-0.2407	1.0103	-6.0645	-7.1191	22.4011	25.1800 
832.054	0.0747	-0.2432	1.0103	-6.3885	-6.8665	22.4011	25.1900 
832.057	0.0771	-0.2407	1.0049	-6.6907	-6.6083	22.3572	25.2000 
832.063	0.0815	-0.2417	1.0093	-7.0532	-6.3391	22.2968	25.1900 
832.083	0.0767	-0.2446	1.0063	-7.5146	-6.0590	22.2528	25.1800 
832.103	0.0737	-0.2339	1.0127	-7.9871	-5.7843	22.2144	25.2000 
832.123	0.0884	-0.2188	1.0063	-8.6572	-5.5261	22.1704	25.1900 
832.142	0.0874	-0.1973	1.0068	-9.8273	-5.3064	22.3187	25.1700 
832.162	0.0889	0.0176	1.0581	-11.5302	-5.0537	22.8955	25.2000 
832.183	0.2285	0.2939	1.4395	-14.6832	-4.9548	24.4061	25.2100 
832.206	0.0957	-0.2305	1.6240	-21.7365	-4.3671	26.6034	25.2000 
832.245	0.6260	-0.3618	1.7402	-31.7340	-3.3563	29.5148	25.2200 
832.251	0.5093	0.3716	2.4453	-42.1985	0.1978	32.1405	25.2000 
832.262	0.3188	-0.5186	3.6226	-45.9943	4.3341	33.5522	25.2000 
832.282	0.8672	0.1392	0.2617	-43.7036	5.1141	36.6559	25.1900 
832.302	0.8960	-0.0244	-0.0981	-40.7483	4.3341	39.1003	25.1700 
832.322	0.4292	-0.0107	0.5850	-38.6224	2.8784	39.3530	25.1800 
832.342	-0.0425	-0.0171	1.2402	-36.0791	1.3568	38.1665	25.1600 
832.362	-0.6777	-0.1860	1.2461	-32.0636	-0.4175	36.6559	25.1800 
832.381	-0.8359	-0.3828	0.8960	-27.2845	-2.1039	35.5682	25.1600 
832.402	-0.6968	-0.6636	0.6392	-22.4121	-3.0267	34.9475	25.1700 
832.420	-0.5698	-0.7266	0.5996	-17.9517	-3.2300	34.5026	25.1700 
832.441	-0.2876	-0.6738	0.9458	-14.3262	-3.0981	34.6729	25.1600 
832.487	-0.1265	-0.6367	1.2319	-10.7446	-2.9388	35.1508	25.1500 
832.489	0.1538	-0.7021	1.0508	-6.8665	-3.1696	35.7825	25.1600 
832.501	0.3633	-0.7383	0.7778	-2.9169	-3.9276	36.2769	25.1600 
832.521	0.5752	-0.6519	0.7842	0.8350	-5.0372	35.8429	25.1600 
832.541	0.4858	-0.5713	0.8516	4.3066	-6.3116	34.2883	25.1600 
832.561	0.3174	-0.5825	0.8735	7.3938	-7.9376	31.8329	25.1600 
832.581	0.3384	-0.6636	0.9111	9.9042	-9.9536	29.0149	25.1600 
832.600	-0.7280	-3.9639	1.7183	10.2722	-12.1729	26.5155	25.1700 
832.620	-4.2134	-3.3208	1.4492	6.5204	-11.6565	24.1644	25.1700 
832.673	0.3506	0.0771	0.5503	4.9109	-12.0081	23.1262	25.1600 
832.675	-0.1099	0.4932	0.6084	6.0809	-12.1179	22.7252	25.1600 
832.682	0.2305	-0.1772	1.0503	5.7019	-12.3267	22.7637	25.1600 
832.700	0.1499	-0.1260	1.0601	4.8010	-12.6727	22.9230	25.1700 
832.720	0.2061	-0.0737	1.0039	4.5593	-12.8430	22.9944	25.1700 
832.740	0.1167	-0.1626	1.0986	3.9661	-12.9419	23.1592	25.1600 
832.759	0.1626	-0.0742	0.9922	3.6475	-12.9089	23.2416	25.1600 
832.779	0.1606	-0.0923	1.0132	3.4937	-12.8815	23.3185	25.1600 
832.799	0.1519	-0.0962	1.0322	3.2080	-12.9749	23.4119	25.1600 
832.819	0.1392	-0.1084	1.0537	3.0432	-13.0298	23.5052	25.1600 
832.864	0.1567	-0.0713	0.9937	2.9553	-13.0737	23.5602	25.1900 
832.869	0.1655	-0.0879	1.0015	2.7686	-13.1287	23.6261	25.1800 
832.879	0.1606	-0.0986	1.0254	2.6093	-13.1781	23.6975	25.1700 
832.899	0.1631	-0.0767	0.9966	2.4719	-13.2111	23.7689	25.1700 
832.919	0.1729	-0.0986	1.0161	2.2192	-13.2220	23.8788	25.1800 
832.939	0.1636	-0.1055	1.0225	1.9336	-13.2166	24.0161	25.1800 
832.958	0.1616	-0.1113	1.0210	1.6095	-13.2385	24.1534	25.1700 
832.978	0.1646	-0.1206	1.0273	1.3513	-13.2220	24.2853	25.1600 
832.998	0.1689	-0.1011	1.0020	1.2689	-13.1781	24.3896	25.1800 
833.058	0.1699	-0.0913	0.9922	1.2799	-13.1561	24.4720	25.1600 
833.062	0.1577	-0.1123	1.0317	1.2854	-13.1342	24.5544	25.1700 
833.062	0.1646	-0.1074	1.0210	1.2524	-13.1177	24.6259	25.1700 
833.077	0.1641	-0.1064	1.0195	1.2030	-13.1012	24.6863	25.1600 
833.097	0.1675	-0.1021	1.0151	1.1975	-13.0847	24.7357	25.1700 
833.119	0.1714	-0.0928	1.0034	1.2140	-13.0627	24.7852	25.1700 
833.138	0.1704	-0.0962	1.0098	1.1975	-13.0023	24.8346	25.1700 
833.157	0.1675	-0.0928	1.0117	1.1865	-12.9144	24.8840	25.1600 
833.177	0.1650	-0.0952	1.0137	1.1810	-12.8375	24.9280	25.1600 
833.197	0.1665	-0.0957	1.0176	1.2140	-12.7661	24.9664	25.1600 
833.220	0.1680	-0.0894	1.0127	1.2799	-12.7112	25.0049	25.1700 
833.238	0.1670	-0.0864	1.0161	1.3184	-12.6563	25.0269	25.1600 
833.257	0.1646	-0.0820	1.0171	1.3184	-12.5958	25.0378	25.1700 
833.301	0.1650	-0.0854	1.0127	1.2909	-12.5354	25.0488	25.1600 
833.304	0.1636	-0.0830	1.0083	1.2415	-12.4915	25.0598	25.1700 
833.316	0.1670	-0.0820	1.0122	1.1920	-12.4530	25.0708	25.1700 
833.336	0.1660	-0.0820	1.0078	1.1151	-12.4091	25.0873	25.1800 
833.356	0.1655	-0.0854	1.0132	1.0052	-12.3706	25.1147	25.1800 
833.376	0.1685	-0.0864	1.0142	0.9119	-12.3322	25.1477	25.1800 
833.396	0.1704	-0.0869	1.0112	0.8240	-12.2992	25.1971	25.1900 
833.416	0.1680	-0.0874	1.0146	0.7306	-12.2607	25.2411	25.1800 
833.436	0.1655	-0.0840	1.0142	0.6427	-12.2168	25.2850	25.1900 
833.490	0.1646	-0.0864	1.0156	0.5548	-12.1783	25.3345	25.1700 
833.492	0.1631	-0.0894	1.0176	0.4669	-12.1344	25.3674	25.1700 
833.496	0.1660	-0.0850	1.0107	0.3845	-12.0959	25.4004	25.1700 
833.516	0.1646	-0.0879	1.0127	0.3131	-12.0520	25.4224	25.1800 
833.535	0.1670	-0.0859	1.0117	0.2472	-12.0081	25.4498	25.1700 
833.555	0.1670	-0.0879	1.0127	0.1758	-11.9641	25.4883	25.1800 
833.575	0.1660	-0.0894	1.0156	0.0989	-11.9202	25.5212	25.1700 
833.595	0.1655	-0.0879	1.0146	0.0275	-11.8817	25.5542	25.1900 
833.615	0.1655	-0.0869	1.0117	-0.0385	-11.8323	25.5762	25.1700 
833.635	0.1660	-0.0859	1.0122	-0.1099	-11.7883	25.5981	25.1600 
833.677	0.1665	-0.0889	1.0107	-0.1923	-11.7389	25.6311	25.1700 
833.680	0.1655	-0.0894	1.0137	-0.2692	-11.6840	25.6641	25.1700 
833.695	0.1616	-0.0894	1.0146	-0.3571	-11.6290	25.7080	25.1800 
833.715	0.1660	-0.0898	1.0171	-0.4285	-11.5906	25.7465	25.1700 
833.734	0.1670	-0.0908	1.0137	-0.4889	-11.5576	25.7959	25.1600 
833.754	0.1660	-0.0894	1.0156	-0.5383	-11.5247	25.8453	25.1700 
833.774	0.1650	-0.0889	1.0112	-0.5878	-11.4862	25.8838	25.1800 
833.794	0.1646	-0.0879	1.0156	-0.6372	-11.4532	25.9167	25.1800 
833.814	0.1641	-0.0874	1.0098	-0.6921	-11.4258	25.9387	25.1900 
833.872	0.1670	-0.0894	1.0151	-0.7471	-11.3928	25.9717	25.1800 
833.876	0.1665	-0.0898	1.0151	-0.8130	-11.3654	26.0046	25.1900 
833.878	0.1660	-0.0874	1.0112	-0.8789	-11.3379	26.0376	25.1800 
833.894	0.1631	-0.0898	1.0127	-0.9338	-11.3104	26.0760	25.1800 
833.915	0.1665	-0.0903	1.0127	-0.9833	-11.2885	26.1090	25.1900 
833.933	0.1655	-0.0898	1.0151	-1.0272	-11.2665	26.1420	25.1800 
833.953	0.1665	-0.0889	1.0151	-1.0767	-11.2445	26.1749	25.1900 
833.973	0.1641	-0.0898	1.0137	-1.1316	-11.2170	26.2134	25.1700 
833.995	0.1660	-0.0889	1.0103	-1.1865	-11.1896	26.2463	25.1700 
834.013	0.1650	-0.0898	1.0132	-1.2360	-11.1566	26.2793	25.1900 
834.034	0.1660	-0.0918	1.0156	-1.2799	-11.1182	26.3123	25.1800 
834.053	0.1655	-0.0913	1.0156	-1.3074	-11.0852	26.3397	25.1800 
834.073	0.1650	-0.0894	1.0137	-1.3184	-11.0522	26.3672	25.1900 
834.115	0.1650	-0.0894	1.0171	-1.3074	-11.0138	26.3947	25.1900 
834.119	0.1646	-0.0898	1.0195	-1.2854	-10.9753	26.4276	25.1900 
834.132	0.1660	-0.0815	1.0098	-1.2415	-10.9314	26.4441	25.1900 
834.152	0.1655	-0.0791	1.0073	-1.2030	-10.8875	26.4551	25.1800 
834.172	0.1592	-0.0830	1.0181	-1.1810	-10.8435	26.4716	25.1900 
834.192	0.1611	-0.0825	1.0195	-1.1700	-10.7996	26.4716	25.1800 
834.213	0.1650	-0.0830	1.0190	-1.1536	-10.7611	26.4716	25.1900 
834.232	0.1616	-0.0830	1.0234	-1.1426	-10.7227	26.4551	25.1600 
834.252	0.1646	-0.0806	1.0142	-1.1261	-10.6952	26.4441	25.1900 
834.326	0.1694	-0.0737	1.0054	-1.1041	-10.6787	26.4386	25.1900 
834.329	0.1655	-0.0762	1.0132	-1.1041	-10.6567	26.4496	25.1900 
834.329	0.1675	-0.0767	1.0137	-1.1096	-10.6348	26.4661	25.1800 
834.332	0.1660	-0.0752	1.0112	-1.1316	-10.6128	26.4716	25.1800 
834.351	0.1655	-0.0767	1.0161	-1.1536	-10.5853	26.4880	25.1900 
834.371	0.1670	-0.0693	1.0039	-1.1646	-10.5634	26.5045	25.1800 
834.391	0.1670	-0.0698	1.0068	-1.1865	-10.5359	26.5210	25.1900 
834.410	0.1641	-0.0747	1.0137	-1.2195	-10.5139	26.5375	25.1900 
834.431	0.1631	-0.0767	1.0195	-1.2579	-10.4919	26.5594	25.2100 
834.451	0.1655	-0.0767	1.0176	-1.2909	-10.4700	26.5759	25.1900 
834.471	0.1641	-0.0757	1.0171	-1.3129	-10.4425	26.5869	25.1900 
834.513	0.1626	-0.0747	1.0176	-1.3403	-10.4041	26.5979	25.1800 
834.515	0.1641	-0.0723	1.0117	-1.3733	-10.3601	26.6034	25.1900 
834.531	0.1641	-0.0728	1.0107	-1.4172	-10.3052	26.6089	25.1900 
834.550	0.1641	-0.0713	1.0146	-1.4557	-10.2557	26.6144	25.1900 
834.570	0.1621	-0.0732	1.0142	-1.4996	-10.2118	26.6199	25.1900 
834.590	0.1626	-0.0747	1.0156	-1.5326	-10.1678	26.6254	25.2000 
834.610	0.1631	-0.0747	1.0146	-1.5601	-10.1294	26.6309	25.2000 
834.630	0.1616	-0.0728	1.0142	-1.5820	-10.0854	26.6309	25.1900 
834.650	0.1621	-0.0752	1.0146	-1.6095	-10.0470	26.6364	25.1900 
834.700	0.1611	-0.0742	1.0161	-1.6370	-10.0140	26.6528	25.1900 
834.703	0.1602	-0.0767	1.0200	-1.6644	-9.9866	26.6803	25.1900 
834.710	0.1621	-0.0757	1.0195	-1.6809	-9.9756	26.7023	25.2000 
834.729	0.1636	-0.0742	1.0146	-1.6919	-9.9646	26.7188	25.1900 
834.749	0.1616	-0.0713	1.0142	-1.6974	-9.9536	26.7407	25.2000 
834.769	0.1641	-0.0723	1.0142	-1.7084	-9.9426	26.7517	25.1900 
834.789	0.1611	-0.0732	1.0186	-1.7303	-9.9261	26.7572	25.1800 
834.809	0.1611	-0.0737	1.0166	-1.7633	-9.9152	26.7517	25.1900 
834.829	0.1616	-0.0742	1.0171	-1.7963	-9.8987	26.7407	25.2000 
834.849	0.1626	-0.0718	1.0146	-1.8292	-9.8932	26.7407	25.1900 
834.888	0.1626	-0.0713	1.0132	-1.8567	-9.8822	26.7462	25.1900 
834.891	0.1631	-0.0728	1.0176	-1.8842	-9.8712	26.7517	25.1900 
834.908	0.1616	-0.0737	1.0176	-1.9116	-9.8602	26.7517	25.2100 
834.928	0.1631	-0.0747	1.0181	-1.9336	-9.8438	26.7517	25.2000 
834.948	0.1646	-0.0713	1.0146	-1.9501	-9.8328	26.7517	25.2000 
834.968	0.1621	-0.0713	1.0122	-1.9611	-9.8108	26.7572	25.1900 
834.988	0.1636	-0.0708	1.0161	-1.9720	-9.7888	26.7682	25.2000 
835.008	0.1636	-0.0708	1.0166	-1.9885	-9.7723	26.7847	25.2000 
835.031	0.1636	-0.0723	1.0176	-1.9995	-9.7504	26.8011	25.2000 
835.084	0.1626	-0.0718	1.0146	-2.0050	-9.7339	26.8066	25.2000 
835.090	0.1606	-0.0708	1.0166	-2.0160	-9.7174	26.8121	25.2000 
835.095	0.1621	-0.0718	1.0181	-2.0325	-9.7009	26.8176	25.2100 
835.107	0.1636	-0.0723	1.0156	-2.0490	-9.6844	26.8341	25.2200 
835.127	0.1636	-0.0703	1.0151	-2.0709	-9.6680	26.8451	25.2200 
835.147	0.1626	-0.0718	1.0146	-2.1039	-9.6460	26.8561	25.2100 
835.167	0.1621	-0.0703	1.0146	-2.1423	-9.6295	26.8616	25.2000 
835.187	0.1616	-0.0723	1.0146	-2.1863	-9.6075	26.8616	25.2100 
835.207	0.1606	-0.0737	1.0156	-2.2247	-9.5911	26.8616	25.2100 
835.227	0.1631	-0.0742	1.0151	-2.2577	-9.5801	26.8671	25.1900 
835.249	0.1621	-0.0728	1.0156	-2.2961	-9.5636	26.8726	25.2000 
835.267	0.1621	-0.0728	1.0151	-2.3236	-9.5526	26.8781	25.2000 
835.286	0.1626	-0.0742	1.0176	-2.3511	-9.5416	26.8945	25.2000 
835.328	0.1646	-0.0723	1.0156	-2.3730	-9.5306	26.9055	25.1900 
835.331	0.1626	-0.0728	1.0161	-2.3950	-9.5251	26.9275	25.2000 
835.346	0.1626	-0.0723	1.0151	-2.4170	-9.5142	26.9440	25.2000 
835.366	0.1626	-0.0728	1.0146	-2.4390	-9.5032	26.9714	25.2000 
835.386	0.1631	-0.0737	1.0146	-2.4554	-9.4922	26.9879	25.1900 
835.406	0.1646	-0.0723	1.0127	-2.4774	-9.4812	27.0099	25.2200 
835.425	0.1621	-0.0732	1.0142	-2.4994	-9.4702	27.0374	25.2100 
835.446	0.1626	-0.0732	1.0176	-2.5159	-9.4537	27.0538	25.2100 
835.466	0.1641	-0.0718	1.0132	-2.5323	-9.4482	27.0758	25.1900 
835.520	0.1621	-0.0742	1.0166	-2.5433	-9.4373	27.0923	25.2300 
835.522	0.1631	-0.0723	1.0176	-2.5598	-9.4263	27.1143	25.2100 
835.525	0.1636	-0.0728	1.0156	-2.5653	-9.4153	27.1307	25.2000 
835.545	0.1636	-0.0728	1.0151	-2.5708	-9.4043	27.1362	25.2100 
835.565	0.1626	-0.0723	1.0146	-2.5763	-9.3933	27.1362	25.2000 
835.585	0.1650	-0.0718	1.0151	-2.5763	-9.3878	27.1472	25.2200 
835.605	0.1631	-0.0708	1.0146	-2.5873	-9.3768	27.1582	25.2100 
835.625	0.1636	-0.0713	1.0151	-2.5983	-9.3713	27.1582	25.2100 
835.645	0.1641	-0.0718	1.0166	-2.6093	-9.3658	27.1582	25.2000 
835.670	0.1646	-0.0708	1.0146	-2.6202	-9.3604	27.1582	25.2100 
835.710	0.1626	-0.0718	1.0156	-2.6367	-9.3494	27.1582	25.2200 
835.712	0.1646	-0.0708	1.0127	-2.6532	-9.3439	27.1582	25.2100 
835.725	0.1616	-0.0718	1.0146	-2.6697	-9.3329	27.1582	25.2100 
835.744	0.1631	-0.0723	1.0171	-2.6971	-9.3219	27.1472	25.2200 
835.764	0.1626	-0.0728	1.0166	-2.7246	-9.3109	27.1417	25.2200 
835.784	0.1650	-0.0737	1.0132	-2.7411	-9.3054	27.1362	25.2200 
835.804	0.1641	-0.0728	1.0146	-2.7576	-9.2944	27.1252	25.2200 
835.824	0.1636	-0.0713	1.0156	-2.7740	-9.2834	27.1198	25.2000 
835.844	0.1646	-0.0698	1.0151	-2.7905	-9.2725	27.1088	25.2100 
835.898	0.1631	-0.0713	1.0161	-2.8070	-9.2560	27.1088	25.2100 
835.901	0.1641	-0.0732	1.0171	-2.8235	-9.2395	27.1088	25.2300 
835.904	0.1621	-0.0737	1.0186	-2.8455	-9.2230	27.1143	25.2200 
835.923	0.1631	-0.0708	1.0127	-2.8564	-9.2120	27.1252	25.2200 
835.943	0.1626	-0.0723	1.0156	-2.8729	-9.1956	27.1252	25.2200 
835.967	0.1626	-0.0718	1.0166	-2.8894	-9.1791	27.1198	25.2200 
835.983	0.1631	-0.0728	1.0151	-2.9059	-9.1626	27.1252	25.2100 
836.003	0.1611	-0.0718	1.0161	-2.9224	-9.1461	27.1307	25.2200 
836.027	0.1621	-0.0728	1.0156	-2.9388	-9.1296	27.1417	25.2300 
836.043	0.1626	-0.0718	1.0151	-2.9553	-9.1132	27.1637	25.2200 
836.062	0.1626	-0.0703	1.0171	-2.9718	-9.0967	27.1802	25.2200 
836.082	0.1631	-0.0718	1.0171	-2.9938	-9.0857	27.1857	25.2100 
836.148	0.1602	-0.0737	1.0166	-3.0157	-9.0692	27.1912	25.2300 
836.151	0.1626	-0.0723	1.0156	-3.0322	-9.0582	27.1912	25.2200 
836.151	0.1631	-0.0723	1.0161	-3.0487	-9.0472	27.1802	25.2100 
836.162	0.1606	-0.0708	1.0137	-3.0652	-9.0363	27.1747	25.2200 
836.182	0.1626	-0.0708	1.0176	-3.0817	-9.0253	27.1637	25.2300 
836.202	0.1621	-0.0747	1.0171	-3.1036	-9.0198	27.1472	25.2200 
836.222	0.1631	-0.0732	1.0181	-3.1201	-9.0143	27.1362	25.2200 
836.242	0.1616	-0.0728	1.0146	-3.1366	-9.0143	27.1307	25.2400 
836.262	0.1626	-0.0728	1.0171	-3.1421	-9.0143	27.1307	25.2400 
836.281	0.1626	-0.0732	1.0156	-3.1531	-9.0088	27.1307	25.2200 
836.338	0.1611	-0.0732	1.0166	-3.1641	-9.0033	27.1252	25.2200 
836.340	0.1626	-0.0732	1.0166	-3.1805	-8.9978	27.1252	25.2300 
836.343	0.1641	-0.0737	1.0151	-3.1915	-8.9923	27.1252	25.2100 
836.363	0.1621	-0.0732	1.0161	-3.2080	-8.9813	27.1252	25.2200 
836.381	0.1616	-0.0732	1.0166	-3.2080	-8.9758	27.1198	25.2200 
836.402	0.1631	-0.0723	1.0156	-3.2080	-8.9758	27.1088	25.2300 
836.421	0.1636	-0.0732	1.0171	-3.2080	-8.9703	27.1033	25.2200 
836.441	0.1641	-0.0723	1.0161	-3.2025	-8.9703	27.0978	25.2200 
836.460	0.1626	-0.0732	1.0166	-3.2025	-8.9648	27.0978	25.2200 
836.481	0.1631	-0.0713	1.0151	-3.2080	-8.9539	27.1033	25.2200 
836.528	0.1626	-0.0728	1.0181	-3.2135	-8.9429	27.1033	25.2300 
836.530	0.1626	-0.0723	1.0181	-3.2245	-8.9374	27.1088	25.2300 
836.540	0.1631	-0.0723	1.0166	-3.2300	-8.9374	27.1143	25.2200 
836.560	0.1616	-0.0728	1.0195	-3.2300	-8.9319	27.1198	25.2200 
836.580	0.1636	-0.0703	1.0122	-3.2355	-8.9319	27.1307	25.2200