StartTime: 2018-11-22 16:32:19.868
Time(s)	ax(g)	ay(g)	az(g)	AngleX(deg)	AngleY(deg)	AngleZ(deg)	T(Â°) 
871.025	0.1353	-0.0781	1.0205	-4.1968	-6.7786	4.2682	25.1400 
871.079	0.1357	-0.0752	1.0195	-4.1968	-6.7786	4.2572	25.1400 
871.087	0.1343	-0.0767	1.0200	-4.1968	-6.7786	4.2462	25.1600 
871.089	0.1348	-0.0747	1.0176	-4.1913	-6.7786	4.2462	25.1500 
871.104	0.1362	-0.0762	1.0190	-4.1858	-6.7841	4.2462	25.1400 
871.122	0.1353	-0.0776	1.0225	-4.1858	-6.7841	4.2517	25.1500 
871.143	0.1353	-0.0757	1.0171	-4.1858	-6.7841	4.2517	25.1500 
871.162	0.1348	-0.0762	1.0186	-4.1803	-6.7841	4.2627	25.1400 
871.182	0.1362	-0.0747	1.0171	-4.1803	-6.7841	4.2737	25.1500 
871.202	0.1348	-0.0747	1.0186	-4.1803	-6.7841	4.2847	25.1500 
871.222	0.1353	-0.0771	1.0220	-4.1803	-6.7841	4.3011	25.1500 
871.273	0.1362	-0.0752	1.0195	-4.1858	-6.7841	4.3121	25.1500 
871.275	0.1353	-0.0771	1.0234	-4.1858	-6.7896	4.3121	25.1500 
871.282	0.1372	-0.0776	1.0225	-4.1858	-6.7841	4.3121	25.1400 
871.302	0.1343	-0.0791	1.0259	-4.1913	-6.7786	4.3011	25.1400 
871.322	0.1367	-0.0815	1.0278	-4.1968	-6.7676	4.2957	25.1600 
871.342	0.1348	-0.0840	1.0298	-4.2078	-6.7566	4.2847	25.1500 
871.362	0.1343	-0.0801	1.0229	-4.1858	-6.7401	4.2682	25.1400 
871.381	0.1392	-0.0728	1.0146	-4.1473	-6.7126	4.2627	25.1400 
871.402	0.1357	-0.0747	1.0166	-4.1144	-6.6852	4.2682	25.1400 
871.421	0.1318	-0.0708	1.0176	-4.0814	-6.6412	4.2682	25.1500 
871.465	0.1318	-0.0703	1.0132	-4.0485	-6.6028	4.2572	25.1500 
871.467	0.1313	-0.0713	1.0171	-4.0210	-6.5643	4.2462	25.1500 
871.481	0.1328	-0.0684	1.0142	-3.9880	-6.5369	4.2407	25.1400 
871.501	0.1343	-0.0684	1.0161	-3.9661	-6.5204	4.2297	25.1600 
871.521	0.1313	-0.0698	1.0171	-3.9496	-6.5039	4.2352	25.1600 
871.541	0.1250	-0.0732	1.0229	-3.9496	-6.4929	4.2407	25.1800 
871.561	0.1284	-0.0728	1.0205	-3.9496	-6.4929	4.2407	25.1600 
871.580	0.1294	-0.0732	1.0244	-3.9441	-6.4984	4.2407	25.1600 
871.600	0.1304	-0.0732	1.0229	-3.9221	-6.5039	4.2462	25.1600 
871.668	0.1333	-0.0669	1.0161	-3.9001	-6.5094	4.2462	25.1600 
871.670	0.1328	-0.0698	1.0190	-3.8892	-6.5149	4.2517	25.1600 
871.670	0.1255	-0.0752	1.0234	-3.8837	-6.5204	4.2517	25.1600 
871.682	0.1401	-0.0767	1.0195	-3.8562	-6.5369	4.2572	25.1600 
871.700	0.1274	-0.0747	1.0254	-3.8123	-6.5424	4.2407	25.1600 
871.720	0.1304	-0.0635	1.0142	-3.7408	-6.5588	4.2242	25.1700 
871.740	0.1294	-0.0605	1.0156	-3.6694	-6.5753	4.2188	25.1600 
871.760	0.1235	-0.0679	1.0273	-3.6145	-6.5808	4.2023	25.1700 
871.779	0.1372	-0.0723	1.0234	-3.5376	-6.6028	4.1858	25.1700 
871.799	0.1299	-0.0693	1.0283	-3.4332	-6.6357	4.1528	25.1700 
871.819	0.1333	-0.0674	1.0273	-3.2849	-6.6797	4.1089	25.1800 
871.857	0.1260	-0.0493	1.0220	-3.0981	-6.7401	4.0540	25.1800 
871.859	0.1240	-0.0479	1.0215	-2.9169	-6.8225	3.9935	25.1800 
871.878	0.1353	-0.0503	1.0234	-2.7686	-6.9269	3.9496	25.1700 
871.900	0.1426	-0.0503	1.0254	-2.6202	-7.0313	3.9166	25.1900 
871.919	0.1519	-0.0381	1.0142	-2.4719	-7.1191	3.8782	25.1900 
871.939	0.1440	-0.0244	1.0039	-2.3621	-7.1906	3.8562	25.1800 
871.958	0.1519	-0.0376	1.0186	-2.3236	-7.2290	3.8452	25.1700 
871.978	0.1533	-0.0493	1.0239	-2.3236	-7.2455	3.8672	25.1900 
871.998	0.1357	-0.0488	1.0327	-2.3126	-7.2345	3.8782	25.1900 
872.019	0.1401	-0.0439	1.0249	-2.2687	-7.2345	3.8837	25.1800 
872.038	0.1377	-0.0376	1.0234	-2.2137	-7.2345	3.8727	25.1700 
872.058	0.1392	-0.0313	1.0137	-2.1808	-7.2400	3.8672	25.1800 
872.095	0.1416	-0.0449	1.0239	-2.1973	-7.2510	3.8617	25.1800 
872.097	0.1470	-0.0493	1.0220	-2.2083	-7.2839	3.8617	25.1700 
872.120	0.1411	-0.0415	1.0264	-2.1533	-7.3224	3.8507	25.1800 
872.138	0.1523	-0.0313	1.0112	-2.0544	-7.3718	3.8342	25.2000 
872.157	0.1504	-0.0303	1.0093	-1.9666	-7.4213	3.8287	25.1700 
872.177	0.1436	-0.0352	1.0166	-1.9281	-7.4487	3.8287	25.1900 
872.197	0.1416	-0.0356	1.0210	-1.9336	-7.4652	3.8177	25.1800 
872.218	0.1450	-0.0356	1.0161	-1.9501	-7.4707	3.7958	25.1900 
872.237	0.1611	-0.0254	0.9971	-1.9940	-7.4487	3.7958	25.1600 
872.288	0.1563	-0.0342	1.0117	-2.1039	-7.4103	3.8232	25.1700 
872.290	0.1343	-0.0430	1.0259	-2.2412	-7.3444	3.8617	25.1800 
872.297	0.1372	-0.0430	1.0210	-2.3621	-7.3004	3.8837	25.1900 
872.317	0.1455	-0.0386	1.0137	-2.4719	-7.2675	3.9111	25.1800 
872.337	0.1523	-0.0313	1.0010	-2.5983	-7.2235	3.9551	25.1700 
872.357	0.1563	-0.0566	1.0254	-2.8345	-7.1521	4.0375	25.1800 
872.376	0.1548	-0.0532	1.0171	-3.1750	-7.0038	4.1638	25.1900 
872.396	0.1255	-0.0654	1.0225	-3.5376	-6.8005	4.2957	25.1900 
872.416	0.1216	-0.0703	1.0186	-3.8947	-6.6357	4.4220	25.1800 
872.436	0.1401	-0.0571	1.0020	-4.2297	-6.5149	4.5374	25.1800 
872.474	0.1328	-0.0532	0.9990	-4.6472	-6.4160	4.6912	25.1900 
872.476	0.0962	-0.0894	1.0166	-5.2789	-6.2842	4.8889	25.1800 
872.496	0.1274	-0.0845	0.9951	-6.0260	-6.0040	5.1086	25.1900 
872.516	0.0894	-0.1143	1.0210	-6.9708	-5.5261	5.3174	25.1900 
872.536	0.0674	-0.1431	1.0259	-8.0310	-4.9548	5.4218	25.1700 
872.561	0.0835	-0.1680	1.0381	-9.1406	-4.3231	5.3998	25.1800 
872.576	0.0859	-0.2021	1.0347	-10.2557	-3.6804	5.2899	25.2000 
872.595	0.0747	-0.2139	1.0425	-11.1346	-3.0487	5.0867	25.1800 
872.615	0.0737	-0.2153	1.0620	-11.8597	-2.4445	4.8175	25.1900 
872.668	0.0576	-0.2109	1.0586	-12.6617	-1.8567	4.5099	25.1900 
872.672	0.0532	-0.1982	1.0552	-13.7384	-1.2634	4.2023	25.2000 
872.675	0.1016	-0.1938	1.0488	-15.2051	-0.7306	4.0265	25.2000 
872.695	0.1011	-0.1470	1.0415	-17.2046	-0.3406	4.1144	25.2200 
872.714	0.0527	0.0386	1.2568	-20.1105	-0.0659	4.6252	25.2100 
872.735	0.1958	-0.1719	1.4937	-25.3619	0.3790	5.5756	25.2000 
872.754	0.4312	-0.3379	1.4971	-32.3108	1.4172	6.6852	25.2100 
872.774	0.3491	-0.2300	1.2856	-40.1990	4.1583	7.1136	25.2100 
872.795	0.1685	-0.1172	2.7051	-47.5269	8.2947	6.1029	25.2000 
872.814	0.9248	0.3916	2.5317	-49.8010	9.7394	6.6028	25.1900 
872.834	0.9653	0.3965	1.1733	-48.3673	9.3658	7.7728	25.1900 
872.854	0.5615	0.1650	0.6475	-45.4230	8.4320	7.7124	25.1900 
872.913	0.3789	0.1758	0.8647	-42.1765	7.4323	6.9104	25.1900 
872.916	0.2539	0.1104	1.1797	-38.9575	6.1194	6.2457	25.1900 
872.916	0.1475	0.0322	1.1973	-34.9036	4.5923	5.6964	25.1900 
872.933	-0.0864	-0.0713	0.9287	-29.8993	3.0927	5.1746	25.1800 
872.953	-0.1748	-0.1470	0.8848	-24.8511	1.6919	4.8505	25.1900 
872.973	-0.1304	-0.2651	1.1035	-20.3357	0.3296	4.8889	25.1800 
872.995	-0.0498	-0.3281	1.2275	-15.9851	-1.0272	5.0867	25.1700 
873.013	-0.0054	-0.3579	1.2822	-11.5741	-2.2906	5.2185	25.1800 
873.035	0.0171	-0.3691	1.3267	-7.2949	-3.6090	5.2295	25.1700 
873.055	0.2729	-0.4312	1.3281	-3.4552	-5.1141	5.1965	25.1700 
873.101	0.4272	-0.4473	1.2041	-0.0110	-6.6907	4.9109	25.1700 
873.104	0.3843	-0.4443	1.1787	2.9059	-8.1573	3.9771	25.1600 
873.113	0.3369	-0.4375	1.4565	5.3174	-9.4318	2.4664	25.1800 
873.133	0.2856	-0.5371	1.8892	7.3499	-10.4205	0.4669	25.1600 
873.153	0.1450	-0.6455	1.9297	9.7449	-11.1896	-1.9666	25.1700 
873.172	-0.0190	-0.8462	1.5142	12.8870	-11.8213	-5.2075	25.1600 
873.192	-0.2646	-0.9438	0.9683	16.3477	-11.7499	-9.0253	25.1600 
873.212	-0.8159	-1.1509	0.7617	19.1821	-11.2280	-12.0355	25.1700 
873.232	-0.8755	-1.3423	0.6802	21.2915	-11.1786	-13.8593	25.1500 
873.252	-0.4419	-1.3398	0.2056	22.5934	-11.3434	-14.3481	25.1500 
873.287	-0.1030	-1.1680	0.3901	22.8406	-10.4974	-13.9636	25.1700 
873.292	0.2104	-0.6475	0.2383	22.2968	-8.9703	-12.7002	25.1500 
873.312	0.0508	-0.7964	-0.1768	20.5060	-7.2729	-10.0635	25.1500 
873.331	0.8799	0.4766	0.6587	17.9407	-5.4492	-7.5916	25.1400 
873.352	-0.0752	-0.1958	1.4712	13.6450	-3.5046	-6.3446	25.1300 
873.371	0.4058	-1.6543	4.4448	9.0253	-2.0490	-6.1194	25.1500 
873.391	-0.0288	-0.1982	1.5820	4.6088	-2.2577	-6.0040	25.1700 
873.412	0.2222	-0.0820	1.1763	2.5653	-3.0267	-6.1304	25.1800 
873.432	0.1836	-0.1006	1.0864	1.3788	-3.2410	-6.0754	25.1700 
873.484	0.0977	-0.1138	1.0938	0.6921	-3.2739	-5.9161	25.1700 
873.489	0.0171	-0.0723	1.0820	0.2747	-3.0927	-5.8557	25.1900 
873.495	0.0840	-0.0894	1.0234	-0.1483	-2.9883	-5.8612	25.1900 
873.512	0.1040	-0.0811	1.0220	-0.5109	-3.0322	-5.8887	25.1900 
873.531	0.1631	-0.1143	1.0303	-0.8569	-3.2465	-5.8228	25.1900 
873.550	0.1455	-0.1030	1.0166	-1.2854	-3.5046	-5.6525	25.2100 
873.570	0.1348	-0.1050	1.0166	-1.6534	-3.6530	-5.4547	25.2000 
873.590	0.1265	-0.1055	1.0161	-2.0050	-3.7793	-5.2460	25.2000 
873.610	0.1084	-0.1025	1.0122	-2.3730	-3.8617	-5.0208	25.1900 
873.630	0.1133	-0.1421	1.0249	-2.7411	-3.8562	-4.7736	25.2000 
873.671	0.1152	-0.1299	1.0156	-3.2410	-3.6749	-4.5209	25.2000 
873.673	0.0962	-0.1333	1.0234	-3.8892	-3.3453	-4.3011	25.2000 
873.690	0.0938	-0.1538	1.0068	-4.8340	-2.7850	-4.1583	25.2000 
873.710	0.0962	-0.1597	1.0015	-5.8777	-2.2467	-4.0485	25.2100 
873.730	0.0718	-0.2119	1.0347	-6.7126	-1.8567	-3.9880	25.2000 
873.749	0.0708	-0.2144	1.0234	-7.2290	-1.4612	-3.9935	25.2000 
873.769	0.0737	-0.1987	1.0098	-7.3663	-1.0382	-4.0375	25.2100 
873.789	0.0732	-0.2104	1.0234	-7.5366	-0.6647	-4.0704	25.2100 
873.809	0.0557	-0.2134	1.0161	-8.0750	-0.4065	-4.0924	25.2100 
873.829	0.0313	-0.2227	1.0361	-8.8165	-0.1923	-4.1638	25.2200 
873.848	0.0132	-0.2266	1.0352	-9.4482	0.1263	-4.3781	25.2000 
873.868	0.0273	-0.2197	1.0239	-9.9756	0.5438	-4.7461	25.2300 
873.918	0.0479	-0.2046	0.9937	-10.9534	1.0162	-5.1306	25.2400 
873.921	0.0786	-0.2217	1.0254	-12.1179	1.3184	-5.2295	25.2300 
873.931	0.0791	-0.0078	1.1152	-13.2770	1.3458	-4.7955	25.2400 
873.948	-0.0474	0.4697	1.6636	-15.6500	1.4832	-3.7463	25.2400 
873.968	0.1226	0.2261	1.9570	-22.0496	2.5323	-2.7191	25.2300 
873.988	0.5234	0.2974	1.7925	-33.9972	4.1748	-2.5049	25.2200 
874.010	0.3687	0.2202	1.7603	-46.6315	5.3064	-2.2467	25.2200 
874.028	0.5400	0.6641	4.3169	-54.4098	7.4158	-2.7795	25.2300 
874.049	0.8921	0.6094	2.0220	-53.7946	8.2233	-1.7798	25.2200 
874.068	0.7646	0.3164	0.4570	-50.2899	8.1848	-1.1261	25.2100 
874.102	0.6333	0.2495	0.6035	-46.3458	7.8497	-1.5546	25.2000 
874.108	0.4312	0.2368	1.3271	-41.2592	7.2235	-2.4390	25.2000 
874.127	0.2744	0.1108	1.4639	-35.6012	6.0205	-3.1805	25.1900 
874.147	-0.0059	-0.1865	0.9424	-29.5642	4.3231	-3.7408	25.2100 
874.168	-0.2505	-0.3340	0.8145	-23.4064	2.7411	-4.4000	25.2000 
874.187	-0.4272	-0.4131	1.0894	-17.4628	1.4227	-4.7516	25.1900 
874.207	-0.3647	-0.4980	1.2739	-12.0135	0.1703	-4.6088	25.1900 
874.227	-0.2065	-0.5581	1.4087	-6.9434	-1.0712	-4.0814	25.1800 
874.247	-0.1973	-0.5684	1.4590	-2.0544	-2.3566	-3.6639	25.1600 
874.289	-0.2148	-0.6929	1.5005	2.7081	-3.6969	-3.4772	25.1700 
874.292	-0.1563	-0.8496	1.4917	7.1246	-5.0537	-3.3508	25.1700 
874.306	0.0933	-0.9556	1.5830	11.1017	-6.4490	-3.0377	25.1900 
874.326	0.2056	-1.0269	1.7163	14.9469	-7.8058	-2.7191	25.1800 
874.346	0.1563	-1.1548	1.6392	18.7646	-9.1296	-2.7191	25.1600 
874.367	-0.0039	-1.2607	1.3687	22.7527	-10.5908	-2.9553	25.1600 
874.386	-0.3364	-1.5273	0.7925	26.7023	-10.9424	-4.6198	25.1500 
874.406	-0.6733	-1.8032	0.4771	29.8553	-9.9042	-6.9983	25.1700 
874.426	-0.8975	-2.0840	-0.2935	31.5582	-8.8605	-8.4650	25.1600 
874.446	-0.9985	-2.3545	-0.5332	30.2673	-7.0752	-8.1519	25.1500 
874.466	0.5171	0.7437	1.2427	27.2516	-5.0208	-6.1139	25.1300 
874.486	0.8955	-0.0059	0.4961	23.7195	-4.0924	-3.2959	25.1200 
874.529	-0.4741	-0.0547	1.7690	19.4513	-3.1421	-1.9116	25.1000 
874.533	1.1328	-0.4189	2.6807	14.9963	-3.2135	-1.0547	25.1100 
874.545	-0.5703	0.0449	1.7695	11.2500	-3.8892	-0.6372	25.1600 
874.565	0.0796	-0.0210	1.3550	8.1628	-4.9219	-0.7965	25.1700 
874.585	0.1641	-0.0688	1.1655	6.3007	-5.4877	-0.7855	25.1900 
874.607	0.1812	-0.0542	1.0659	5.5865	-6.0315	-0.6482	25.1900 
874.625	0.1523	-0.0391	1.0527	5.0922	-6.5424	-0.4614	25.2100 
874.645	0.1426	-0.0615	1.0801	4.4659	-7.1301	-0.2747	25.2100 
874.665	0.1870	-0.0796	1.0542	3.8452	-7.7618	-0.0604	25.2000 
874.719	0.2090	-0.0825	1.0205	3.3179	-8.4100	0.1758	25.2000 
874.721	0.2148	-0.0825	0.9854	2.9773	-9.0253	0.4504	25.2000 
874.725	0.2192	-0.0659	0.9688	2.8455	-9.5691	0.6976	25.2000 
874.746	0.2310	-0.0669	0.9717	2.7081	-10.0140	0.9558	25.2000 
874.764	0.2422	-0.0654	0.9512	2.5543	-10.3326	1.2195	25.2000 
874.784	0.2437	-0.0864	0.9771	2.4335	-10.4755	1.4557	25.1900 
874.806	0.2554	-0.0859	0.9839	2.2632	-10.5139	1.6974	25.1800 
874.824	0.2534	-0.0898	1.0005	2.0490	-10.4480	1.9391	25.2000 
874.844	0.2378	-0.0913	1.0210	1.6809	-10.3381	2.2028	25.1900 
874.866	0.2231	-0.0830	0.9844	1.0931	-10.1898	2.4774	25.1900 
874.907	0.2393	-0.0737	0.9580	0.3955	-9.9976	2.7795	25.1900 
874.909	0.2261	-0.0898	0.9854	-0.3845	-9.6680	3.1476	25.2000 
874.923	0.2153	-0.1143	0.9966	-1.2250	-9.2725	3.5760	25.1900 
874.943	0.2236	-0.1279	0.9814	-2.1039	-8.8550	4.0814	25.1900 
874.963	0.1929	-0.1802	1.0122	-2.9993	-8.4045	4.6307	25.1900 
874.983	0.1641	-0.1895	1.0117	-3.8287	-7.9321	5.1306	25.2000 
875.003	0.1572	-0.1807	0.9966	-4.4604	-7.4982	5.5042	25.2200 
875.023	0.1685	-0.2163	0.9995	-4.9109	-7.0367	5.7843	25.1900 
875.043	0.1533	-0.2109	1.0322	-5.1910	-6.4819	5.9656	25.2200 
875.096	0.1523	-0.2090	1.0532	-5.5261	-5.8887	6.0974	25.2000 
875.101	0.1323	-0.1934	1.0786	-6.1798	-5.3448	6.2512	25.2200 
875.103	0.1201	-0.1841	1.0732	-7.3279	-4.8944	6.4709	25.2000 
875.122	0.1016	-0.1548	1.0757	-9.0692	-4.4550	6.7291	25.2000 
875.142	0.1006	-0.1167	1.0327	-11.4148	-3.9771	7.1301	25.2000 
875.162	0.0400	0.1919	1.3970	-14.5734	-3.4332	7.7563	25.2200 
875.183	0.0625	0.0952	1.8843	-20.9070	-3.1641	8.9758	25.2200 
875.202	0.5688	0.2471	1.7920	-31.2012	-3.7628	10.7446	25.2200 
875.222	0.4995	0.0708	1.4531	-43.1982	-4.1858	13.3209	25.2200 
875.243	0.8721	-0.0493	4.0684	-50.7568	-1.6644	13.1891	25.2000 
875.261	0.7783	0.6426	2.2759	-51.4215	0.5328	12.2937	25.1900 
875.281	0.4648	0.4478	0.6934	-48.4772	1.8347	11.5027	25.2100 
875.332	0.5249	0.3164	0.8101	-44.9945	2.9388	10.7996	25.2000 
875.334	0.6108	0.1621	1.0039	-41.0669	3.6969	10.1514	25.2000 
875.341	0.5669	0.0518	1.0029	-36.3098	4.0924	9.4153	25.1900 
875.361	0.4463	-0.1128	1.0176	-31.0583	3.9606	8.6243	25.1900 
875.381	0.3071	-0.2344	1.0005	-25.6256	3.3618	7.8717	25.1900 
875.401	0.0674	-0.3525	1.0581	-20.1160	2.3181	7.2180	25.1900 
875.420	-0.0371	-0.4189	1.2139	-14.7656	1.1041	6.6907	25.1700 
875.441	-0.1611	-0.5137	1.3696	-9.5306	-0.1154	6.3391	25.1900 
875.461	-0.1465	-0.5386	1.3760	-4.4550	-1.2744	6.2073	25.1700 
875.481	0.0278	-0.5757	1.3745	0.1483	-2.4554	6.3446	25.1600 
875.520	0.1074	-0.6094	1.4932	4.4550	-3.5870	6.4325	25.1500 
875.522	0.1875	-0.6362	1.7446	8.6462	-4.6802	6.3776	25.1700 
875.540	0.2920	-0.6836	1.7412	12.7771	-5.8008	6.1523	25.1700 
875.560	0.3926	-0.8086	1.5137	16.7157	-6.8280	5.7294	25.1600 
875.580	0.3955	-0.8921	1.4243	20.3467	-7.7454	5.0208	25.1600 
875.600	0.2056	-0.9893	1.1660	23.6865	-8.7122	3.9496	25.1400 
875.620	-0.0913	-1.1572	0.9028	26.8121	-9.7668	2.4829	25.1400 
875.639	-0.8105	-1.7568	0.6665	29.5313	-8.5529	-0.9558	25.1200 
875.660	-1.2065	-2.1641	0.1709	31.2122	-7.2949	-3.0817	25.1200 
875.708	-0.4365	-1.8994	0.0396	31.2891	-6.5808	-3.5760	25.1100 
875.712	-0.3325	-1.1758	0.4253	28.9435	-4.4110	-2.6532	25.1000 
875.719	0.2993	0.4873	0.4355	25.7520	-2.1478	-0.8295	25.1000 
875.739	-0.1265	-0.1958	1.4253	21.9672	-0.8020	0.4559	25.0700 
875.759	-0.2373	0.0059	1.6753	17.9462	-0.3571	0.6647	25.1000 
875.779	1.7886	-1.7295	3.2031	13.0573	-1.3843	1.3623	25.1300 
875.799	-0.4253	-0.0732	2.1211	8.4869	-2.9498	1.7029	25.1700 
875.819	0.1328	-0.1392	1.3457	5.5426	-4.1144	1.6754	25.2100 
875.839	0.1230	-0.1177	1.1694	4.4110	-4.1858	1.7413	25.2100 
875.859	0.1255	-0.1206	1.0977	3.6584	-4.1583	1.9116	25.1800 
875.883	0.1191	-0.0874	1.0522	3.2025	-4.1858	2.0490	25.1900 
875.899	0.1108	-0.0864	1.0293	2.7795	-4.2792	2.1643	25.1900 
875.958	0.1299	-0.0845	1.0225	2.5653	-4.4275	2.2687	25.1900 
875.961	0.1519	-0.0825	0.9995	2.4719	-4.5978	2.3785	25.1900 
875.961	0.1709	-0.0708	0.9688	2.3785	-4.8395	2.5378	25.1900 
875.978	0.1709	-0.0811	0.9717	2.1368	-5.0867	2.7466	25.1900 
875.998	0.1812	-0.0928	0.9888	1.8512	-5.3009	2.9828	25.2000 
876.018	0.1997	-0.1313	1.0308	1.5161	-5.4602	3.2465	25.1900 
876.043	0.1582	-0.1011	1.0137	1.2140	-5.3668	3.5156	25.1900 
876.058	0.1606	-0.1094	1.0229	0.8020	-5.1306	3.7903	25.1800 
876.079	0.1357	-0.1074	1.0254	0.2417	-4.8505	4.0814	25.2100 
876.098	0.1265	-0.1201	1.0229	-0.4065	-4.6198	4.3890	25.2000 
876.152	0.1182	-0.1177	1.0034	-1.1096	-4.4110	4.7296	25.1900 
876.154	0.1333	-0.1436	1.0088	-1.7963	-4.1473	5.0812	25.2000 
876.157	0.1440	-0.1313	0.9839	-2.5488	-3.7463	5.4382	25.1900 
876.177	0.1128	-0.1558	0.9990	-3.5321	-3.2135	5.7953	25.1800 
876.197	0.0786	-0.2158	1.0322	-4.6362	-2.6367	6.0864	25.2000 
876.217	0.0732	-0.2422	1.0459	-5.8063	-2.0874	6.2787	25.2000 
876.237	0.0781	-0.2466	1.0376	-6.6632	-1.5765	6.3116	25.1900 
876.257	0.0815	-0.2544	1.0386	-7.2949	-1.1096	6.2238	25.2000 
876.277	0.0713	-0.2651	1.0513	-8.0640	-0.5988	6.0864	25.2100 
876.297	0.0801	-0.2388	1.0479	-9.0088	-0.0330	5.9491	25.1900 
876.340	0.0703	-0.2554	1.0483	-10.2777	0.5219	5.8447	25.2100 
876.343	0.1089	-0.0352	1.0947	-11.7114	0.9119	5.9875	25.2000 
876.357	0.0977	0.3760	1.3066	-13.6011	1.0767	6.7896	25.2200 
876.376	0.2461	0.3271	1.9204	-19.8029	1.1700	8.4210	25.2300 
876.396	0.5342	0.0034	1.9707	-31.0089	1.8787	10.3052	25.2100 
876.416	0.2563	-0.0142	2.6978	-44.5496	4.7845	11.1017	25.1900 
876.436	0.4912	0.1694	4.4702	-52.1686	8.6133	9.8108	25.2000 
876.456	1.0586	0.5767	1.4487	-51.1908	9.5911	10.6128	25.1800 
876.476	0.9102	0.3467	0.4526	-47.9169	9.2505	11.3049	25.1800 
876.534	0.6602	0.2173	0.6626	-44.5276	8.2068	10.8270	25.1900 
876.536	0.4346	0.1699	1.0391	-41.1658	6.9708	9.7119	25.1800 
876.536	0.0947	0.0405	1.1860	-36.5900	5.5096	8.4705	25.1800 
876.555	-0.0469	-0.1113	1.0815	-31.2726	4.0320	7.4158	25.1900 
876.576	-0.2231	-0.3174	1.0693	-25.6036	2.7631	6.6687	25.1700 
876.595	-0.3306	-0.4185	1.1460	-19.7314	1.6809	6.2732	25.1700 
876.615	-0.2959	-0.5420	1.1655	-14.0131	0.5548	6.4819	25.1700 
876.637	-0.2231	-0.5864	1.2173	-8.6792	-0.5933	6.9598	25.1600 
876.655	-0.1587	-0.5903	1.4224	-3.6584	-1.6864	7.5476	25.1600 
876.675	-0.0552	-0.5898	1.4927	1.1865	-2.9114	8.1683	25.1500 
876.722	0.1411	-0.6538	1.5806	5.9052	-4.3671	8.6298	25.1400 
876.725	0.2407	-0.6899	1.6592	10.3381	-5.8557	8.7506	25.1600 
876.735	0.3350	-0.7935	1.7593	14.4910	-7.1960	8.4375	25.1600 
876.754	0.3765	-0.8921	1.7046	18.6053	-8.4375	7.7673	25.1600 
876.774	0.3701	-1.0918	1.4180	22.7692	-9.5746	6.8280	25.1600 
876.794	0.0649	-1.2480	1.0757	26.8451	-10.4755	5.3009	25.1700 
876.814	-0.5303	-1.7910	0.7271	30.4486	-10.2008	2.2357	25.1500 
876.834	-1.1108	-2.5449	0.1523	32.9919	-8.7231	-1.0657	25.1600 
876.854	-0.7222	-2.3916	-0.5996	32.9810	-7.0807	-2.2137	25.1400 
876.874	-0.3887	-1.0972	0.1396	29.8224	-3.8727	-1.1536	25.1200 
876.894	0.3735	0.2134	1.1333	25.5817	-1.0657	0.3680	25.1100 
876.913	-0.6904	-0.1987	1.5703	21.1047	0.5438	0.8459	25.1300 
876.962	0.3467	0.0269	3.1685	16.2213	0.9009	0.7526	25.1300 
876.965	0.4204	-0.3965	1.5879	10.4150	-0.5713	1.5875	25.1700 
876.973	0.2979	-0.1470	1.2163	7.1356	-2.3730	1.3403	25.1700 
876.995	0.0786	-0.0742	1.1499	5.5316	-3.0377	1.2634	25.1700 
877.013	0.1226	-0.1353	1.1284	4.7681	-3.3179	1.3458	25.1900 
877.033	0.0933	-0.0952	1.0493	4.2242	-3.4607	1.4282	25.1800 
877.053	0.0913	-0.1128	1.0527	3.6914	-3.7573	1.4227	25.1700 
877.073	0.1265	-0.0947	1.0566	3.2355	-4.1418	1.3733	25.1700 
877.095	0.2202	-0.1274	1.0293	2.8455	-4.5538	1.4282	25.1800 
877.112	0.1870	-0.1182	1.0107	2.4774	-4.8395	1.5765	25.1900 
877.154	0.1772	-0.1089	1.0024	2.1973	-5.0372	1.7468	25.1800 
877.155	0.1636	-0.1138	1.0054	1.8347	-5.1801	1.9391	25.1900 
877.171	0.1636	-0.1187	0.9883	1.4502	-5.2844	2.1533	25.1900 
877.192	0.1553	-0.1226	0.9893	1.0931	-5.3229	2.3730	25.2000 
877.212	0.1660	-0.1250	0.9932	0.7361	-5.2734	2.5873	25.1900 
877.232	0.1675	-0.1221	0.9897	0.2856	-5.1141	2.8235	25.1900 
877.252	0.1724	-0.1143	0.9814	-0.3021	-4.8724	3.0927	25.1900 
877.272	0.1274	-0.1709	1.0229	-1.1591	-4.5264	3.4003	25.1900 
877.292	0.1162	-0.1758	1.0195	-2.1698	-4.1583	3.6694	25.2000 
877.340	0.1235	-0.1895	1.0044	-3.2355	-3.8177	3.9166	25.1900 
877.342	0.1226	-0.2007	1.0005	-4.3451	-3.5156	4.1364	25.1900 
877.351	0.1372	-0.2549	1.0171	-5.3558	-3.2300	4.3231	25.2000 
877.371	0.1221	-0.2471	1.0122	-6.0535	-2.9279	4.4275	25.2100 
877.391	0.1157	-0.2480	1.0117	-6.5039	-2.6532	4.4934	25.2200 
877.411	0.0981	-0.2534	1.0215	-6.8555	-2.4170	4.5264	25.1900 
877.430	0.0962	-0.2783	1.0313	-7.2784	-2.1918	4.4604	25.2000 
877.450	0.0889	-0.2729	1.0386	-7.8168	-1.8622	4.3451	25.2000 
877.471	0.0938	-0.2441	1.0532	-8.5034	-1.4502	4.2517	25.1900 
877.490	0.0859	-0.2251	1.0469	-9.5251	-0.9833	4.1968	25.1900 
877.510	0.1372	0.0581	1.0703	-10.6787	-0.6152	4.4055	25.2200 
877.530	0.0449	0.2661	1.2720	-12.6233	-0.2911	5.1031	25.2100 
877.582	-0.0093	0.1831	1.9087	-18.8855	0.0165	6.4929	25.2200 
877.584	0.2212	0.0405	2.0098	-29.6851	-0.0824	8.2397	25.2000 
877.590	0.5840	0.2358	2.2607	-43.1598	-0.0165	10.4645	25.2000 
877.610	0.3677	-0.2178	4.7251	-52.1356	2.9498	10.2832	25.1800 
877.630	0.8315	0.7139	1.9990	-51.9489	4.9274	10.8600	25.1900 
877.650	0.7847	0.5063	0.8979	-48.6804	6.0205	11.6345	25.1800 
877.669	0.7183	0.3120	0.7505	-44.3188	6.5918	11.5741	25.1900 
877.690	0.6177	0.2251	0.9429	-39.9023	6.7841	11.0193	25.1900 
877.710	0.3623	0.0752	1.0874	-34.6509	6.3007	10.3217	25.1800 
877.729	0.1797	-0.0845	1.1260	-28.8721	5.2844	9.7119	25.1800 
877.772	-0.0864	-0.3525	1.2002	-22.7142	3.9990	9.1736	25.1800 
877.774	-0.2295	-0.4619	1.1724	-16.3422	2.6642	8.7341	25.1700 
877.789	-0.3091	-0.5771	1.2046	-10.2557	1.3074	8.5309	25.1800 
877.809	-0.3267	-0.5991	1.3979	-4.7296	0.1099	8.5529	25.1700 
877.829	-0.2637	-0.6157	1.5117	0.4999	-0.9119	8.8110	25.1500 
877.849	-0.1260	-0.6528	1.5151	5.4877	-2.0654	9.3823	25.1700 
877.869	0.0522	-0.7559	1.7979	10.2063	-3.4827	10.0800	25.1600 
877.889	0.2236	-0.8535	1.8843	14.6997	-5.0702	10.7281	25.1500 
877.912	0.4414	-1.0718	1.6387	18.9294	-6.8280	11.2335	25.1600 
877.966	0.4917	-1.2173	1.4771	22.9175	-8.7671	11.1292	25.1500 
877.972	0.1948	-1.3975	1.2002	26.7352	-10.4645	9.8547	25.1400 
877.972	-0.2822	-1.6367	0.8569	30.3333	-11.6180	7.6025	25.1300 
877.988	-1.0635	-2.1372	0.3501	33.3545	-10.3601	3.7244	25.1400 
878.008	-1.0132	-2.2261	-0.0308	34.7937	-9.6405	1.2085	25.1400 
878.027	-0.1396	-1.7441	0.3618	34.1675	-9.7064	0.4944	25.1500 
878.048	0.4761	-0.7017	0.5503	31.7944	-10.2612	1.8127	25.1400 
878.068	0.4277	0.8418	0.4678	28.1195	-8.0035	2.7905	25.1300 
878.088	-0.8062	0.2153	0.2207	24.4720	-5.2734	2.9498	25.1200 
878.109	-1.5854	0.1577	1.2041	18.8580	-3.4222	2.7686	25.1500 
878.165	1.2979	-1.8511	4.7588	10.9094	-4.5264	3.2794	25.1600 
878.168	0.1260	-0.0259	1.1948	7.0038	-5.7019	3.3453	25.1700 
878.168	0.0962	-0.0288	1.0249	6.1194	-5.9546	3.3728	25.1600 
878.186	0.1519	-0.1084	1.0674	5.5371	-6.1963	3.5156	25.1800 
878.207	0.1367	-0.1499	1.0649	5.0317	-6.3226	3.6749	25.1700 
878.227	0.0840	-0.1040	1.0474	4.5099	-6.4050	3.8177	25.1800 
878.246	0.1367	-0.1484	1.0679	3.7793	-6.4490	3.9166	25.1600 
878.268	0.1445	-0.1401	1.0386	3.2080	-6.3995	4.0485	25.1800 
878.287	0.1514	-0.1426	1.0166	2.7356	-6.3171	4.2078	25.1900 
878.307	0.1421	-0.1299	1.0059	2.3071	-6.2347	4.3945	25.1800 
878.354	0.1396	-0.1313	0.9976	1.8732	-6.1633	4.6033	25.1800 
878.356	0.1372	-0.1416	0.9800	1.3403	-6.1139	4.8724	25.1900 
878.366	0.1274	-0.1929	1.0254	0.7361	-5.9875	5.1691	25.1700 
878.386	0.1177	-0.1841	1.0161	0.2087	-5.7404	5.4272	25.1900 
878.415	0.1128	-0.1841	1.0195	-0.3625	-5.4492	5.6305	25.1700 
878.426	0.1226	-0.1782	1.0078	-1.1700	-5.0867	5.8173	25.1800 
878.446	0.1157	-0.1748	0.9888	-2.2742	-4.6417	6.0590	25.1700 
878.465	0.0854	-0.2231	1.0073	-3.7573	-4.1803	6.3391	25.1900 
878.485	0.0781	-0.2646	1.0068	-5.3448	-3.7408	6.6028	25.1800 
878.505	0.0791	-0.2803	1.0034	-6.5918	-3.3344	6.8060	25.1900 
878.557	0.0601	-0.2954	0.9951	-7.4323	-2.9828	6.9104	25.1900 
878.559	0.0542	-0.3086	1.0068	-7.9706	-2.6367	6.8994	25.1900 
878.565	0.0513	-0.3062	1.0005	-8.2727	-2.3236	6.7566	25.2200 
878.585	0.0581	-0.3037	0.9985	-8.4430	-2.0050	6.5094	25.2000 
878.605	0.0815	-0.2920	1.0352	-8.4924	-1.6754	6.2512	25.2000 
878.625	0.0879	-0.2695	1.0532	-8.6572	-1.3953	6.1139	25.2000 
878.645	0.1138	-0.1860	1.0151	-9.4537	-0.9778	6.2897	25.2000 
878.665	0.1001	-0.0317	1.0762	-10.7007	-0.5658	7.0093	25.2200 
878.684	-0.0967	0.2456	1.8447	-14.2548	-0.4120	8.8989	25.2100 
878.704	0.1963	0.3408	2.1460	-22.2693	-0.2197	11.8488	25.2200 
878.727	0.6152	0.0601	1.5674	-35.4419	0.3845	15.2765	25.2000 
878.744	0.8057	-1.3833	3.8491	-47.9059	3.7573	16.7047	25.1800 
878.794	1.3203	0.6406	2.8296	-49.5923	5.6580	16.8365	25.1800 
878.796	0.9404	0.6772	0.8955	-46.4886	5.1910	17.1991	25.1900 
878.804	0.4521	0.4067	0.6470	-42.2260	4.0759	16.3312	25.1800 
878.824	0.2793	0.3662	0.9346	-38.1281	3.2190	14.8920	25.1700 
878.844	0.0352	0.1631	1.1626	-33.4698	2.4774	13.4692	25.1700 
878.864	-0.0752	0.0239	1.1182	-27.9767	1.8896	12.3486	25.1900 
878.884	-0.1602	-0.2349	1.0825	-22.3297	1.3074	11.7938	25.1700 
878.903	-0.1714	-0.3774	1.1250	-16.7761	0.5768	11.7883	25.1600 
878.924	-0.1436	-0.4956	1.3027	-11.1786	-0.3241	12.1509	25.1700 
878.943	-0.1426	-0.5171	1.4326	-5.7184	-1.3788	12.6727	25.1600 
878.983	-0.1899	-0.5264	1.5215	-0.4230	-2.5488	13.1561	25.1500 
878.986	-0.2041	-0.5874	1.4751	4.5813	-3.9111	13.6011	25.1400 
879.003	-0.0903	-0.6973	1.5366	9.2395	-5.5701	14.1064	25.1500 
879.023	0.0923	-0.7334	1.6196	13.6176	-7.3279	14.6722	25.1500 
879.043	0.2476	-0.8037	1.7061	17.6990	-8.8660	15.0568	25.1500 
879.062	0.3291	-0.8735	1.6484	21.5442	-10.2338	15.0513	25.1600 
879.082	0.4233	-1.0947	1.3389	25.2960	-11.5411	14.4965	25.1400 
879.102	0.2544	-1.2368	1.0244	28.9325	-12.7222	13.1506	25.1300 
879.123	-0.2144	-1.5400	0.7461	32.1460	-13.7988	11.0413	25.1400 
879.170	-0.7407	-1.8892	0.5625	34.8102	-14.2932	8.2782	25.1400 
879.172	-0.9414	-1.9180	0.0869	36.4526	-13.4583	5.3503	25.1200 
879.183	-0.3628	-1.8330	-0.2783	35.9253	-14.4141	4.9658	25.1400 
879.202	0.0708	0.0923	0.8447	32.0032	-13.1781	7.0862	25.1300 
879.222	0.4023	0.4150	0.3896	27.8613	-10.6293	8.5693	25.1000 
879.241	-1.7783	-0.1118	1.6299	22.6373	-8.4869	8.5089	25.1200 
879.261	0.8691	-0.6870	3.6885	16.8201	-8.1464	8.6407	25.1400 
879.281	-0.2261	-0.1943	2.2959	10.8051	-9.5087	8.9978	25.1900 
879.301	0.3457	-0.1680	1.1963	8.5968	-9.8053	8.7122	25.1800 
879.321	0.2075	-0.1953	1.1631	7.3444	-9.5526	8.8330	25.1600 
879.341	0.1050	-0.0977	1.0762	6.4929	-9.1846	9.0857	25.1800 
879.361	0.0659	-0.1313	1.0972	5.7349	-8.9648	9.2615	25.1600 
879.407	0.0493	-0.1289	1.0854	4.9219	-8.8934	9.3109	25.1800 
879.409	0.1514	-0.1216	1.0269	4.2407	-8.9209	9.3768	25.1600 
879.421	0.1377	-0.1328	1.0156	3.6200	-8.9154	9.5361	25.1600 
879.440	0.1177	-0.1328	1.0176	3.0212	-8.8385	9.7119	25.1700 
879.460	0.1138	-0.1479	1.0049	2.4500	-8.7341	9.8877	25.1700 
879.480	0.1226	-0.1592	1.0020	1.7468	-8.5638	10.1404	25.1700 
879.500	0.0996	-0.1782	1.0103	0.9613	-8.3331	10.3986	25.1700 
879.520	0.0928	-0.1772	1.0215	0.2307	-8.0804	10.6018	25.1700 
879.541	0.1011	-0.1870	1.0049	-0.5219	-7.8113	10.7556	25.1700 
879.601	0.1055	-0.2002	1.0039	-1.5161	-7.4927	10.9259	25.1900 
879.603	0.0874	-0.2222	1.0088	-2.7246	-7.1082	11.1346	25.1600 
879.603	0.0801	-0.2383	0.9907	-4.0649	-6.7072	11.3379	25.1600 
879.619	0.0688	-0.2720	0.9985	-5.3668	-6.2952	11.5027	25.1800 
879.640	0.0791	-0.2876	0.9839	-6.4380	-5.8887	11.6235	25.1900 
879.659	0.0649	-0.2837	0.9824	-7.1851	-5.5426	11.7059	25.1800 
879.679	0.0552	-0.2891	0.9956	-7.6849	-5.2515	11.7389	25.1800 
879.699	0.0459	-0.3086	0.9849	-7.9980	-4.9988	11.6565	25.1900 
879.719	0.0542	-0.2993	0.9902	-8.1354	-4.7516	11.4697	25.1900 
879.739	0.0552	-0.2778	1.0317	-8.1464	-4.5154	11.2555	25.1900 
879.800	0.0708	-0.2603	1.0610	-8.2947	-4.3011	11.1127	25.2000 
879.806	0.0933	-0.1777	1.0527	-9.1022	-3.9825	11.2170	25.2000 
879.806	0.0474	-0.0171	1.1045	-10.4590	-3.5815	11.7499	25.1900 
879.818	0.0190	0.3730	1.9365	-14.0295	-3.4167	13.1287	25.2200 
879.838	0.1904	0.3813	2.1279	-22.5055	-3.1201	14.8755	25.2000 
879.858	0.4536	0.1851	1.6450	-36.3922	-2.4280	16.4026	25.1800 
879.878	0.0698	-1.5249	4.1875	-48.4607	0.2142	16.0785	25.1700 
879.898	0.7705	0.6968	2.6343	-50.0812	1.9171	16.5509	25.1700 
879.918	0.8691	0.5640	0.9678	-47.4225	2.3621	17.6880	25.1800 
879.940	0.6880	0.3501	0.7417	-43.2971	2.5049	17.4573	25.1600 
879.987	0.5200	0.3027	0.9170	-39.0179	2.3895	16.5948	25.1600 
879.991	0.2813	0.0898	1.1064	-34.2883	1.6699	15.7379	25.1700 
879.998	0.1055	-0.0273	1.0376	-28.6743	0.5603	14.9304	25.1500 
880.018	-0.1372	-0.2598	1.0210	-22.9175	-0.5823	14.1559	25.1700 
880.037	-0.2695	-0.3818	1.1460	-17.1716	-1.6589	13.5846	25.1600 
880.057	-0.4341	-0.4585	1.2715	-11.2775	-2.6642	13.4033	25.1500 
880.077	-0.4419	-0.5327	1.3252	-5.5481	-3.6914	13.7714	25.1500 
880.097	-0.2017	-0.6387	1.5205	-0.2307	-4.8724	14.6448	25.1400 
880.118	-0.0200	-0.7080	1.5762	4.8285	-6.3336	15.6775	25.1500 
880.137	0.0830	-0.7603	1.5791	9.8438	-8.0145	16.2982	25.1500 
880.180	0.1450	-0.8438	1.7217	14.6118	-9.6130	16.3312	25.1500 
880.185	0.2617	-1.1021	1.7788	19.0118	-11.0358	16.1005	25.1400 
880.198	0.2432	-1.2563	1.6074	23.3240	-12.5519	15.7324	25.1300 
880.217	0.0044	-1.4854	1.0645	27.6086	-14.2383	14.7876	25.1400 
880.237	-0.2720	-1.7759	0.6313	31.4868	-15.9027	13.1781	25.1200 
880.257	-0.9219	-2.3613	0.2563	34.1345	-17.1771	11.0852	25.1400 
880.277	-0.4287	-1.7212	-0.6299	35.4364	-17.8748	8.9099	25.1300 
880.296	-0.3125	-0.8301	0.4448	32.6404	-17.8967	9.7284	25.1200 
880.316	0.0957	0.5562	1.0913	28.6798	-15.0293	11.0687	25.1200 
880.336	-0.2544	-0.1597	1.0498	23.9722	-12.3816	12.6233	25.1000 
880.356	-1.0234	-0.0430	1.9526	18.9954	-10.4590	12.8705	25.1000 
880.376	0.0928	-0.2827	1.8462	13.1891	-10.8105	13.3264	25.1300 
880.413	-0.1030	-0.0044	1.5908	9.4537	-12.2113	12.9584	25.1700 
880.415	0.1777	-0.0840	1.0898	7.7893	-12.5464	12.8815	25.1700 
880.435	0.1484	-0.1304	1.1294	6.7456	-12.7441	12.9089	25.1600 
880.455	0.1177	-0.1235	1.0620	6.0590	-12.6782	12.9639	25.1700 
880.475	0.0830	-0.1045	1.0820	5.5042	-12.7002	12.9529	25.1600 
880.495	0.1235	-0.0913	1.0381	4.9274	-12.7771	12.8430	25.1600 
880.515	0.1958	-0.1260	1.0327	4.3616	-12.9199	12.7716	25.1600 
880.535	0.1689	-0.1201	1.0229	3.8397	-12.9419	12.7826	25.1600 
880.555	0.1504	-0.1089	1.0083	3.4277	-12.8540	12.8210	25.1700 
880.612	0.1533	-0.1201	1.0010	3.0212	-12.7551	12.8815	25.1600 
880.614	0.1479	-0.1167	0.9922	2.5983	-12.6837	12.9584	25.1600 
880.619	0.1470	-0.1294	1.0029	2.1204	-12.5629	13.0518	25.1700 
880.634	0.1523	-0.1362	0.9990	1.6260	-12.3706	13.1561	25.1600 
880.654	0.1436	-0.1724	1.0151	0.9998	-12.1179	13.2770	25.1700 
880.674	0.1206	-0.1602	1.0112	0.2802	-11.7828	13.3759	25.1700 
880.694	0.1313	-0.1621	1.0015	-0.5219	-11.4038	13.4692	25.1600 
880.714	0.1230	-0.1729	1.0034	-1.4667	-11.0083	13.5571	25.1600 
880.734	0.1226	-0.1802	0.9976	-2.4939	-10.6403	13.6285	25.1700 
880.754	0.1079	-0.2490	1.0229	-3.6749	-10.2777	13.7000	25.1700 
880.798	0.1099	-0.2529	0.9956	-4.8505	-9.8657	13.7439	25.1500 
880.800	0.0957	-0.2603	1.0117	-5.6525	-9.4098	13.7054	25.1700 
880.814	0.0894	-0.2617	1.0176	-6.2567	-8.9539	13.6011	25.1600 
880.834	0.0952	-0.2808	1.0146	-6.7511	-8.5199	13.4198	25.1700 
880.853	0.0864	-0.2627	1.0269	-7.1411	-8.0914	13.2385	25.1600 
880.873	0.0786	-0.2373	1.0376	-7.7069	-7.6190	13.0957	25.1900 
880.893	0.0801	-0.2295	1.0532	-8.5089	-7.1027	13.0023	25.1700 
880.913	0.0649	-0.0283	1.1021	-9.6075	-6.7346	13.2935	25.2000 
880.932	-0.0210	0.3223	1.4072	-11.9751	-6.4709	14.1888	25.1900 
880.955	0.2310	0.0864	1.7827	-19.3744	-6.3556	15.6885	25.1800 
880.973	0.5146	-0.0127	1.6582	-30.9595	-6.3171	17.5726	25.1700 
880.992	0.2080	-0.4741	3.7832	-42.6379	-4.2188	18.5999	25.1800 
881.037	0.4087	0.6069	3.7339	-46.5326	-1.4832	18.4515	25.1600 
881.050	0.7256	0.5903	0.7368	-44.0771	-0.5658	19.6381	25.1600 
881.055	0.7964	0.3721	0.4868	-40.5835	-0.1538	20.2478	25.1700 
881.072	0.7793	0.2358	0.8540	-37.1283	0.0989	19.8413	25.1600 
881.092	0.5908	0.1753	1.0532	-33.1238	-0.1099	18.8196	25.1600 
881.112	0.2744	-0.0332	1.1841	-28.2513	-0.9393	17.6770	25.1400 
881.132	0.0708	-0.1709	1.1729	-22.8955	-2.0435	16.6223	25.1600 
881.154	-0.2300	-0.3535	1.0547	-17.2485	-3.1146	15.7983	25.1300 
881.172	-0.3345	-0.4404	1.0859	-11.7334	-4.1913	15.4688	25.1300 
881.224	-0.2290	-0.5439	1.2725	-6.7072	-5.4437	15.7709	25.1300 
881.226	-0.1323	-0.5713	1.4316	-2.0160	-6.8060	16.4465	25.1300 
881.231	-0.0747	-0.5869	1.5430	2.5323	-8.2507	17.1661	25.1500 
881.251	-0.0298	-0.6401	1.5620	6.9708	-9.8602	17.8308	25.1600 
881.271	0.1650	-0.7290	1.5845	11.1951	-11.6071	18.4570	25.1300 
881.291	0.2983	-0.7915	1.5195	15.1337	-13.3704	18.9294	25.1400 
881.311	0.4727	-0.8882	1.3237	18.8470	-15.1392	18.9240	25.1300 
881.331	0.4927	-1.0132	1.2671	22.2418	-16.7761	18.0231	25.1300 
881.351	0.0586	-1.1318	1.0034	25.4773	-18.0066	16.1993	25.1200 
881.371	-0.3101	-1.2925	0.8330	28.5974	-18.9734	13.8593	25.1200 
881.412	-0.9673	-1.6890	0.5669	31.2946	-19.0009	10.7391	25.1200 
881.414	-1.0107	-1.7920	0.3486	33.1403	-18.4680	7.7179	25.1300 
881.432	-0.6865	-1.7915	-0.0830	32.2559	-16.9794	7.0422	25.1100 
881.450	-0.2383	-0.1118	0.9541	29.0808	-13.8373	8.0475	25.1100 
881.471	0.3188	0.1440	0.6914	25.2850	-11.2335	10.1184	25.0900 
881.490	-0.8730	-0.2202	1.7661	20.8026	-9.3384	11.1676	25.1000 
881.510	1.0928	-1.6631	3.1348	16.2213	-9.0253	11.7444	25.1200 
881.530	-0.3892	-0.0254	1.8257	12.3322	-10.0085	12.0410	25.1400 
881.550	0.1416	-0.0479	1.1733	9.9426	-10.9424	11.8213	25.1500 
881.605	0.1582	-0.0532	1.0913	8.4320	-11.3214	11.7444	25.1600 
881.607	0.1489	-0.0879	1.0620	7.4927	-11.3489	11.8597	25.1500 
881.610	0.1260	-0.0811	1.0771	6.8610	-11.4148	12.0300	25.1600 
881.629	0.1206	-0.0947	1.0728	6.2567	-11.4697	12.1564	25.1500 
881.650	0.1411	-0.0659	1.0278	5.8282	-11.5686	12.2333	25.1500 
881.669	0.1528	-0.0664	1.0156	5.3503	-11.7279	12.3102	25.1600 
881.688	0.1553	-0.0894	1.0298	4.8615	-11.9092	12.4146	25.1500 
881.709	0.1650	-0.0903	1.0083	4.4495	-12.0630	12.5299	25.1600 
881.729	0.1899	-0.1108	1.0005	3.9990	-12.1674	12.7002	25.1500 
881.749	0.1899	-0.1113	1.0049	3.5815	-12.1838	12.9144	25.1600 
881.770	0.1768	-0.1167	1.0156	3.1366	-12.1838	13.1616	25.1600 
881.788	0.1694	-0.1191	1.0186	2.6917	-12.1344	13.4253	25.1500 
881.808	0.1602	-0.1211	1.0049	2.2083	-11.9861	13.6725	25.1600 
881.845	0.1572	-0.1294	1.0078	1.6150	-11.7389	13.9032	25.1700 
881.848	0.1611	-0.1216	0.9971	0.9283	-11.4313	14.1284	25.1600 
881.868	0.1528	-0.1362	1.0034	0.1044	-11.0962	14.3866	25.1700 
881.888	0.1440	-0.1821	1.0190	-0.8405	-10.7062	14.6722	25.1600 
881.908	0.1382	-0.1777	1.0010	-1.7963	-10.2997	14.9359	25.1600 
881.930	0.1362	-0.1997	1.0020	-2.8345	-9.8657	15.1831	25.1600 
881.948	0.1323	-0.2007	1.0039	-3.7408	-9.3878	15.3918	25.1700 
881.967	0.1162	-0.2124	1.0078	-4.4934	-8.8824	15.5402	25.1400 
881.988	0.1182	-0.2744	1.0283	-5.2240	-8.3716	15.6555	25.1700 
882.032	0.0981	-0.2441	1.0293	-5.7678	-7.8552	15.6995	25.1600 
882.035	0.0825	-0.2485	1.0225	-6.3062	-7.3389	15.6940	25.1600 
882.047	0.0654	-0.2544	1.0596	-6.9159	-6.8060	15.6555	25.1700 
882.067	0.0903	-0.1797	1.0474	-7.5696	-6.2512	15.6720	25.1700 
882.087	0.1230	-0.0405	1.0352	-8.3002	-5.8447	15.9302	25.1700 
882.107	0.0532	0.0464	1.1860	-10.1624	-5.6964	16.7487	25.1900 
882.127	0.1104	0.4331	2.0679	-16.1224	-5.5042	18.3362	25.1900 
882.148	0.5098	-0.1255	1.9487	-26.9055	-5.5316	20.3192	25.1700 
882.171	0.4985	0.1069	1.8164	-40.5121	-4.5978	22.3462	25.1800 
882.230	0.2236	-0.6343	4.2681	-49.9713	-0.9723	21.9177	25.1700 
882.233	0.7490	0.4995	1.9502	-50.8173	1.5930	22.4341	25.1700 
882.233	0.8301	0.3677	0.6099	-47.8949	2.3895	24.2139	25.1600 
882.246	0.9199	0.1509	0.4434	-44.2749	2.1368	25.2301	25.1700 
882.266	0.8145	0.0972	0.7861	-40.9021	1.5546	24.8071	25.1600 
882.286	0.4087	0.0688	1.0698	-36.7493	0.5713	23.4448	25.1500 
882.308	0.1582	-0.0151	1.0942	-31.6571	-0.8459	21.8628	25.1500 
882.326	-0.0625	-0.2529	1.2373	-26.2024	-2.3511	20.3796	25.1400 
882.346	-0.2070	-0.3608	1.1978	-20.3467	-3.6584	19.0613	25.1600 
882.366	-0.3286	-0.4761	1.0542	-14.3536	-4.6857	18.0945	25.1300 
882.414	-0.2271	-0.5122	1.1104	-8.7561	-5.6580	17.6770	25.1400 
882.416	-0.0688	-0.5186	1.4160	-3.6365	-6.6467	17.6111	25.1500 
882.425	0.0186	-0.5415	1.6665	1.2250	-7.7783	17.6166	25.1400 
882.445	0.1318	-0.5708	1.7764	6.1304	-9.0253	17.4738	25.1300 
882.470	0.2271	-0.6846	1.8364	10.9644	-10.1514	17.1332	25.1200 
882.485	0.3140	-0.8477	1.7451	15.6281	-11.0797	16.6553	25.1300 
882.505	0.3633	-0.9551	1.5566	20.0500	-12.0135	16.2048	25.1300 
882.525	-0.0176	-1.0605	1.2573	24.1370	-13.4802	15.5511	25.1100 
882.545	-0.1816	-1.3789	1.0586	28.0811	-15.1172	14.0845	25.1200 
882.565	-1.1006	-1.8413	0.5327	31.6241	-14.7931	11.7004	25.1100 
882.584	-1.2222	-2.0977	0.0718	34.0906	-13.5022	9.5801	25.1200 
882.605	-0.5801	-2.0737	-0.2646	33.6346	-13.1067	9.7778	25.1200 
882.652	-0.1953	-1.0645	0.4951	30.1245	-12.0081	12.1069	25.1200 
882.654	1.2051	0.1963	0.8613	25.7849	-10.8270	15.1666	25.1000 
882.664	0.1440	-0.1494	1.0884	20.9564	-9.8492	17.2211	25.0700 
882.684	0.6729	-2.3223	5.1738	15.4468	-9.2944	17.5836	25.1000 
882.704	-0.1563	-0.2368	1.9741	9.4922	-10.4700	18.3087	25.1300 
882.724	0.1885	-0.0786	1.0786	7.7234	-11.0907	18.0231	25.1500 
882.743	0.2026	-0.0576	1.0244	6.7181	-11.3159	17.9736	25.1500 
882.764	0.1802	-0.1357	1.0952	5.7184	-11.3214	18.1000	25.1500 
882.784	0.1294	-0.1006	1.0791	5.1306	-11.1127	18.2098	25.1300 
882.803	0.0913	-0.0986	1.0679	4.5923	-10.9314	18.2648	25.1500 
882.845	0.0991	-0.0947	1.0552	4.0759	-10.8545	18.2483	25.1400 
882.847	0.1348	-0.0947	1.0142	3.5870	-10.8435	18.2318	25.1500 
882.863	0.1543	-0.1250	1.0278	3.1915	-10.8545	18.2483	25.1600 
882.883	0.1436	-0.1094	1.0103	2.9828	-10.7556	18.2593	25.1500 
882.903	0.1475	-0.1025	1.0093	2.7795	-10.5908	18.2977	25.1400 
882.923	0.1509	-0.1030	1.0000	2.4829	-10.4370	18.3856	25.1600 
882.943	0.1372	-0.1143	1.0117	2.1259	-10.3052	18.5065	25.1600 
882.963	0.1294	-0.1196	1.0176	1.7633	-10.1843	18.6438	25.1600 
882.984	0.1055	-0.1123	1.0103	1.3458	-10.0305	18.7537	25.1800 
883.031	0.1040	-0.1362	1.0176	0.7416	-9.8108	18.8361	25.1600 
883.033	0.1182	-0.1431	1.0083	0.0000	-9.5416	18.8855	25.1600 
883.042	0.1196	-0.1587	1.0127	-0.9393	-9.2340	18.9514	25.1600 
883.062	0.1270	-0.1748	1.0093	-1.9446	-8.9374	19.0338	25.1400 
883.082	0.1226	-0.1846	1.0015	-2.9608	-8.6462	19.1382	25.1600 
883.102	0.1172	-0.1992	0.9917	-3.9551	-8.3331	19.2426	25.1600 
883.122	0.0972	-0.2324	1.0156	-4.8230	-7.9871	19.3304	25.1600 
883.142	0.0972	-0.2280	1.0200	-5.5206	-7.6300	19.3799	25.1600 
883.162	0.0859	-0.2534	1.0146	-6.1633	-7.3059	19.3854	25.1600 
883.182	0.0850	-0.2607	1.0171	-6.6522	-6.9928	19.3250	25.1600 
883.230	0.0820	-0.2690	1.0239	-7.1246	-6.6138	19.2261	25.1700 
883.234	0.0703	-0.2427	1.0176	-7.6685	-6.1359	19.0997	25.1800 
883.241	0.0635	-0.2549	1.0093	-8.2727	-5.6360	18.9789	25.1700 
883.263	0.0874	-0.2725	0.9844	-9.0088	-5.1471	18.9075	25.1600 
883.281	0.1133	-0.0205	1.0601	-9.7668	-4.7955	19.0723	25.1700 
883.301	0.1255	0.2817	1.3472	-11.7499	-4.7516	19.9622	25.1900 
883.321	0.0024	0.2925	1.9775	-17.0508	-4.6307	21.5387	25.1900 
883.341	0.5654	-0.1216	1.7988	-26.9879	-3.9880	23.6206	25.1600 
883.361	0.5547	0.0049	1.4424	-39.4080	-1.9775	25.3400	25.1700 
883.380	0.3135	-0.7500	4.2500	-49.5868	2.5159	24.6918	25.1400 
883.404	0.8652	0.3643	2.8623	-51.5369	5.0702	25.0269	25.1500 
883.420	0.9341	0.2500	0.5254	-48.7848	5.5426	26.5924	25.1300 
883.467	0.8208	0.1392	0.2441	-45.2252	5.0098	27.2516	25.1500 
883.469	0.6484	0.0605	0.7661	-42.0941	4.1418	26.8671	25.1500 
883.480	0.5220	0.0161	1.2422	-38.5016	2.9498	25.9167	25.1400 
883.500	0.2095	-0.0835	1.2056	-33.5797	1.4447	24.5929	25.1300 
883.520	-0.0269	-0.2236	1.0273	-27.9822	-0.1208	23.2251	25.1300 
883.540	-0.2349	-0.3804	0.9297	-22.2913	-1.6809	22.1649	25.1300 
883.560	-0.2856	-0.4243	1.0049	-16.7432	-3.2739	21.5662	25.1500 
883.579	-0.2378	-0.4746	1.2363	-11.5082	-4.8065	21.3574	25.1200 
883.600	-0.1704	-0.4922	1.4072	-6.5314	-6.2183	21.3464	25.1300 
883.622	-0.0537	-0.5352	1.6489	-1.6425	-7.6740	21.3904	25.1200 
883.661	0.0474	-0.5728	1.6538	3.1970	-9.1791	21.3135	25.1100 
883.663	0.1421	-0.6816	1.6396	7.7673	-10.6073	21.0663	25.1300 
883.679	0.1968	-0.7271	1.6504	12.0355	-11.9696	20.6873	25.1300 
883.700	0.3623	-0.8174	1.4448	15.8917	-13.3978	20.3027	25.1200 
883.719	0.4360	-0.8828	1.2739	19.3689	-14.9030	19.7260	25.1200 
883.739	0.1587	-0.9160	1.0063	22.4945	-16.3806	18.3856	25.1000 
883.759	-0.0347	-0.9995	0.9160	25.5322	-17.7484	16.2653	25.1100 
883.779	-0.6255	-1.1318	0.7637	28.2074	-17.9242	13.4747	25.1000 
883.798	-0.9365	-1.1758	0.6401	30.5255	-16.4355	9.9152	25.1000 
883.847	-0.5620	-1.0879	0.5957	31.6077	-15.6061	7.9156	25.1100 
883.849	-0.2056	-0.9629	0.7505	31.5692	-15.3918	7.5146	25.1100 
883.858	-0.0488	-0.8867	0.8765	30.7617	-16.0730	9.4537	25.1200 
883.878	-0.1333	-1.1138	0.1504	28.7018	-15.6995	11.9092	25.1000 
883.898	0.0664	0.2681	0.2119	25.7794	-13.6890	14.1559	25.1000 
883.918	-0.3076	-0.0688	1.2236	21.6486	-11.7773	15.2820	25.0800 
883.938	-0.9058	0.6113	1.8135	16.9080	-10.7446	15.3534	25.0700 
883.958	-0.1406	-0.1113	1.8257	11.2115	-11.9037	16.3367	25.1100 
883.978	0.0391	-0.0366	1.2710	8.9758	-12.8650	15.8203	25.1500 
884.000	0.1763	-0.0537	1.0537	7.9102	-13.1836	15.6885	25.1500 
884.042	0.1367	-0.0488	1.0557	7.3059	-13.1836	15.7159	25.1300 
884.045	0.1436	-0.0947	1.0601	6.7841	-13.0243	15.7928	25.1400 
884.057	0.1143	-0.0664	1.0430	6.4160	-12.8979	15.8148	25.1500 
884.077	0.1338	-0.0552	1.0010	6.2073	-12.8540	15.7928	25.1500 
884.097	0.1382	-0.0474	0.9980	6.0370	-12.8540	15.7764	25.1400 
884.120	0.1768	-0.0635	0.9858	5.7074	-12.7661	15.8423	25.1400 
884.136	0.1533	-0.0640	1.0068	5.2899	-12.6343	15.9302	25.1500 
884.156	0.1616	-0.0845	1.0103	4.7900	-12.5189	16.0510	25.1300 
884.176	0.1914	-0.1226	1.0303	4.2297	-12.4036	16.2323	25.1400 
884.196	0.1377	-0.1045	1.0371	3.6969	-12.1948	16.4246	25.1500 
884.216	0.1279	-0.1074	1.0352	3.1970	-11.9751	16.5894	25.1600 
884.236	0.1099	-0.1221	1.0337	2.5543	-11.7554	16.7267	25.1400 
884.277	0.0918	-0.1040	0.9561	1.8073	-11.5411	16.8475	25.1400 
884.280	0.1270	-0.1494	1.0146	1.0217	-11.3049	16.9958	25.1400 
884.296	0.1323	-0.1475	1.0054	0.1538	-11.0193	17.1771	25.1400 
884.316	0.1328	-0.1533	0.9995	-0.8130	-10.6842	17.4023	25.1500 
884.336	0.1226	-0.1621	0.9980	-1.8787	-10.3326	17.6331	25.1600 
884.356	0.0991	-0.2158	1.0161	-3.1036	-9.9591	17.8528	25.1500 
884.376	0.1001	-0.2202	1.0068	-4.0649	-9.5691	18.0066	25.1500 
884.395	0.0938	-0.2368	1.0132	-4.6692	-9.1736	18.0725	25.1400 
884.415	0.0845	-0.2373	1.0166	-5.1196	-8.7616	18.0725	25.1400 
884.465	0.0796	-0.2500	1.0220	-5.5261	-8.3386	17.9846	25.1600 
884.468	0.0728	-0.2622	1.0024	-6.0425	-7.9047	17.8528	25.1500 
884.475	0.0981	-0.2671	1.0308	-6.6028	-7.4377	17.6935	25.1600 
884.495	0.0806	-0.2329	1.0264	-7.1466	-6.9598	17.5671	25.1600 
884.515	0.0869	-0.2246	1.0283	-7.7673	-6.5039	17.5507	25.1500 
884.535	0.1069	-0.0859	1.0371	-8.3167	-6.2183	17.8253	25.1600 
884.555	0.1084	0.1929	1.2539	-9.7394	-6.2897	18.7372	25.1800 
884.574	0.1865	0.7524	1.9365	-14.8480	-6.3171	20.7971	25.1900 
884.594	0.5596	0.0068	1.9346	-25.7410	-5.9985	22.8186	25.1600 
884.615	0.5898	0.1675	1.4824	-39.4135	-4.9768	24.8016	25.1600 
884.651	0.4692	-0.3833	4.4077	-50.3943	-1.2909	24.3842	25.1500 
884.653	0.7671	0.4980	2.7690	-52.0258	0.9833	24.3732	25.1600 
884.674	0.7578	0.3237	0.4668	-49.1309	1.3843	25.6036	25.1400 
884.694	0.7285	0.1802	0.2637	-45.5493	0.9448	26.3727	25.1500 
884.714	0.6567	0.1387	0.7456	-42.3633	0.3241	25.8838	25.1500 
884.734	0.4756	0.0933	1.0894	-38.8751	-0.4120	24.6588	25.1500 
884.754	0.1533	-0.0107	1.1567	-34.0027	-1.5820	23.1482	25.1400 
884.774	-0.0229	-0.1343	1.1138	-28.5590	-2.8510	21.6760	25.1300 
884.793	-0.2080	-0.3608	1.1772	-22.9559	-4.0485	20.5774	25.1200 
884.815	-0.2656	-0.4663	1.2319	-17.2156	-5.2130	19.9072	25.1200 
884.833	-0.2490	-0.5596	1.1738	-11.3708	-6.5259	19.7974	25.1200 
884.853	-0.1631	-0.5864	1.2212	-5.7458	-7.9926	19.9457	25.1200 
884.891	0.0264	-0.6294	1.5815	-0.6812	-9.5142	20.2203	25.1200 
884.893	0.1045	-0.6270	1.7671	4.2133	-11.0083	20.2753	25.1200 
884.913	0.1147	-0.7725	1.8926	9.1461	-12.4091	19.9072	25.1100 
884.934	0.1152	-0.9053	1.8989	13.9801	-13.6780	19.2920	25.1100 
884.954	0.2402	-1.0615	1.6328	18.5724	-14.9414	18.8141	25.1000 
884.973	0.3774	-1.1567	1.3687	22.8680	-16.2817	18.4076	25.1000 
884.994	0.2212	-1.2510	1.0449	26.8066	-17.4847	17.4792	25.1100 
885.012	-0.2998	-1.6279	0.6670	30.3003	-18.6108	15.7379	25.0900 
885.032	-0.9561	-2.0815	0.4478	33.2501	-18.5944	13.1177	25.1000 
885.076	-0.8921	-1.7515	-0.0107	34.8981	-17.9956	11.0193	25.1000 
885.080	-0.2090	-0.9697	0.1558	33.8983	-18.0286	11.5906	25.0900 
885.092	0.0854	-0.5415	1.0093	30.5145	-15.9576	14.0350	25.0900 
885.112	0.5845	0.6162	0.4131	27.4878	-13.7714	16.3586	25.0900 
885.132	-0.8599	-0.0684	1.0918	23.4009	-12.0905	17.3474	25.0600 
885.151	-0.6226	0.5410	1.3877	18.7756	-11.5686	17.3969	25.0800 
885.171	-0.4272	-0.1865	2.4160	12.7332	-12.8650	18.0011	25.1000 
885.191	-0.0112	-0.1021	1.4790	10.1129	-13.7384	17.5836	25.1300 
885.211	0.2012	-0.0557	1.0527	9.0527	-14.1284	17.4408	25.1500 
885.231	0.1318	-0.0430	1.0640	8.5858	-14.2657	17.3529	25.1200 
885.266	0.1841	-0.0303	0.9868	8.2947	-14.3152	17.3309	25.1200 
885.271	0.1377	-0.0405	1.0059	7.8552	-14.3536	17.3090	25.1200 
885.291	0.1636	-0.0674	1.0308	7.2839	-14.4525	17.3309	25.1400 
885.311	0.1533	-0.0684	1.0264	6.7786	-14.5569	17.3419	25.1400 
885.330	0.1846	-0.0762	1.0059	6.3831	-14.7711	17.3914	25.1300 
885.350	0.1973	-0.0747	0.9893	6.0645	-14.9524	17.4518	25.1200 
885.371	0.2021	-0.0903	1.0020	5.6030	-15.0623	17.5562	25.1300 
885.390	0.2046	-0.1245	1.0225	5.0482	-15.1392	17.7045	25.1300 
885.410	0.1982	-0.1343	1.0273	4.5813	-15.1007	17.8638	25.1200 
885.457	0.2007	-0.1196	1.0156	4.2737	-15.0018	18.0011	25.1300 
885.461	0.1929	-0.0977	1.0000	4.0430	-14.8096	18.1165	25.1300 
885.472	0.1763	-0.1040	1.0107	3.6859	-14.5624	18.2208	25.1300 
885.490	0.1558	-0.1108	1.0181	3.1201	-14.3701	18.2977	25.1300 
885.509	0.1714	-0.1162	0.9985	2.4335	-14.2328	18.3746	25.1300 
885.530	0.1802	-0.1304	0.9897	1.6315	-14.0570	18.4900	25.1300 
885.549	0.1855	-0.1299	0.9810	0.7581	-13.8757	18.6438	25.1500 
885.569	0.1929	-0.1411	0.9761	-0.1538	-13.6011	18.8690	25.1500 
885.589	0.1973	-0.1587	0.9771	-1.0876	-13.1561	19.1492	25.1300 
885.609	0.1626	-0.2114	1.0112	-2.0380	-12.5684	19.4513	25.1400 
885.632	0.1265	-0.2202	1.0264	-2.7081	-11.9586	19.6655	25.1100 
885.649	0.0962	-0.2319	1.0376	-3.1256	-11.4258	19.7534	25.1300 
885.701	0.1099	-0.2183	1.0273	-3.4277	-10.9369	19.6930	25.1300 
885.704	0.1250	-0.2070	1.0293	-3.7573	-10.4700	19.5886	25.1500 
885.709	0.1138	-0.2090	1.0376	-4.2297	-10.0360	19.5117	25.1400 
885.729	0.1309	-0.1738	1.0508	-4.8999	-9.5856	19.4897	25.1400 
885.748	0.1343	-0.1357	1.0288	-5.7898	-9.0857	19.5612	25.1400 
885.768	0.1641	0.0430	0.9707	-6.8005	-8.6243	19.9402	25.1600 
885.788	-0.0332	0.3574	1.1904	-8.9209	-8.2892	20.7971	25.1700 
885.808	-0.0327	0.2002	1.9839	-14.5020	-8.1354	22.5439	25.1600 
885.833	0.4790	0.0752	1.8003	-24.6259	-8.5638	25.1807	25.1500 
885.848	0.5532	0.1045	1.5063	-37.7985	-8.6462	28.2898	25.1400 
885.887	0.9053	-1.2651	4.0444	-49.5923	-5.6799	28.8611	25.1300 
885.889	0.8296	0.6338	2.4116	-51.4490	-3.1421	27.5098	25.1300 
885.908	0.5688	0.5825	0.8765	-48.9111	-2.1313	26.6693	25.1300 
885.928	0.5615	0.3857	0.6108	-45.1813	-1.8347	26.0046	25.1300 
885.948	0.6436	0.3062	0.9038	-41.6821	-1.5985	25.1202	25.1200 
885.967	0.5068	0.1567	1.1812	-37.5842	-1.5161	23.8843	25.1000 
885.987	0.3335	0.0693	1.1050	-32.3053	-1.7798	22.5659	25.1200 
886.007	0.1270	-0.1479	1.0464	-26.5155	-2.5269	21.5002	25.1200 
886.027	0.0098	-0.2847	1.1074	-20.8905	-3.5431	20.7367	25.1000 
886.047	-0.1328	-0.4185	1.2744	-15.0403	-4.7681	20.2808	25.1100 
886.067	-0.1992	-0.4849	1.3584	-9.0143	-6.0699	20.0061	25.1000 
886.088	-0.1860	-0.5371	1.4790	-3.1366	-7.5146	19.9786	25.1000 
886.127	0.0420	-0.6426	1.7158	2.3676	-9.0912	20.0500	25.0800 
886.128	0.1675	-0.7285	1.8530	7.7179	-10.6183	19.8248	25.0900 
886.147	0.1792	-0.9077	2.0386	13.0957	-11.8542	19.0173	25.0900 
886.166	0.2222	-1.1367	1.9702	18.3746	-12.7496	17.9407	25.1000 
886.186	0.1797	-1.5293	1.4990	23.3350	-13.7659	17.1936	25.0800 
886.206	0.0127	-1.6782	1.1714	27.9108	-15.1337	16.1554	25.0700 
886.226	-0.4883	-2.1597	0.6523	31.7120	-16.5015	14.5239	25.0800 
886.246	-1.1382	-2.7002	0.1992	34.6234	-16.9080	12.1838	25.0900 
886.266	-0.8804	-2.6934	-0.6724	34.6893	-17.6825	11.3763	25.0700 
886.311	-0.3682	-1.0190	0.6167	30.6464	-16.8695	13.1122	25.0700 
886.314	0.8906	0.2603	0.5693	26.1639	-15.0568	15.9467	25.0700 
886.326	0.2192	-0.2427	0.9336	20.8521	-13.5571	18.4955	25.0600 
886.346	0.4033	-2.5811	5.0518	14.9139	-13.1616	19.3195	25.0800 
886.365	-0.1895	-0.1138	1.9722	10.5304	-14.8206	18.9294	25.1000 
886.386	0.1641	-0.1035	1.2158	8.9099	-15.1172	18.5559	25.1100 
886.405	0.1802	-0.0503	1.0459	7.9211	-15.2710	18.3142	25.1100 
886.425	0.2271	-0.0645	1.0083	7.0587	-15.3369	18.2538	25.1200 
886.445	0.1777	-0.0796	1.0498	6.3281	-15.2930	18.3252	25.1100 
886.505	0.1401	-0.1050	1.0635	5.5151	-15.1337	18.4241	25.1000 
886.508	0.1226	-0.1147	1.0742	4.8010	-15.0128	18.4680	25.1100 
886.508	0.1377	-0.1187	1.0474	4.2133	-15.0238	18.4735	25.1100 
886.524	0.1499	-0.1094	1.0239	3.8013	-15.0842	18.4570	25.1200 
886.544	0.1880	-0.1147	0.9961	3.5156	-15.1117	18.4515	25.1200 
886.564	0.1875	-0.1084	0.9839	3.2574	-15.1062	18.4735	25.1100 
886.584	0.1836	-0.1240	1.0020	3.0212	-15.0677	18.5449	25.1100 
886.604	0.1880	-0.1030	0.9902	2.8235	-14.9799	18.6383	25.1000 
886.624	0.1631	-0.1152	1.0093	2.4884	-14.7876	18.7866	25.1200 
886.646	0.1436	-0.1279	1.0210	2.0050	-14.5294	18.9404	25.1000 
886.701	0.1250	-0.1328	1.0205	1.4557	-14.2328	19.0393	25.1100 
886.702	0.1265	-0.1357	1.0195	0.8130	-13.9526	19.0778	25.1100 
886.704	0.1533	-0.1470	0.9976	0.0385	-13.7000	19.1217	25.1300 
886.723	0.1714	-0.1499	0.9775	-0.8020	-13.4033	19.1986	25.1200 
886.743	0.1479	-0.1733	1.0039	-1.7194	-12.9529	19.3359	25.1100 
886.763	0.1318	-0.1992	1.0176	-2.6093	-12.4036	19.4513	25.1000 
886.783	0.1304	-0.2036	1.0005	-3.2794	-11.8378	19.4952	25.1100 
886.803	0.1294	-0.2109	1.0063	-3.8232	-11.2665	19.4843	25.1100 
886.823	0.1104	-0.2183	1.0259	-4.2792	-10.7062	19.4293	25.1300 
886.844	0.0967	-0.2178	1.0347	-4.7351	-10.1514	19.3469	25.1300 
886.900	0.0913	-0.2339	1.0566	-5.3284	-9.5526	19.2755	25.1200 
886.902	0.0747	-0.2446	1.0698	-5.9875	-8.8660	19.1876	25.1200 
886.905	0.1465	-0.0952	0.9487	-6.6632	-8.1628	19.1711	25.1400 
886.923	0.0742	0.4424	1.1089	-7.6300	-7.6904	19.5007	25.1400 
886.943	0.0503	0.2319	1.9575	-11.7389	-7.5421	20.7751	25.1700 
886.962	0.2485	0.0327	1.9229	-21.2201	-7.2235	22.8406	25.1500 
886.983	0.5264	0.0190	1.5386	-34.7333	-6.0809	25.0433	25.1400 
887.002	0.2969	-1.5063	3.5610	-46.8896	-2.1973	24.9225	25.1200 
887.023	0.7236	0.5088	2.4902	-49.7955	0.8679	24.4006	25.1200 
887.042	0.9224	0.3936	0.8511	-47.9059	1.9940	25.5981	25.1100 
887.096	0.9580	0.1406	0.2993	-44.4727	1.8457	26.5649	25.1200 
887.099	0.9072	0.1030	0.5591	-41.2482	1.3074	26.4551	25.1200 
887.101	0.5840	0.0576	0.9136	-37.6392	0.1373	25.3949	25.1100 
887.121	0.3354	-0.0205	1.1489	-33.0908	-1.5546	23.8788	25.1000 
887.141	0.0269	-0.2524	1.2495	-27.7570	-3.4827	22.1265	25.0900 
887.161	-0.1528	-0.3989	1.1460	-21.9122	-5.3394	20.3577	25.0800 
887.182	-0.2158	-0.4961	1.0898	-15.7050	-7.0203	18.8086	25.1000 
887.201	-0.0566	-0.5244	1.0786	-9.6240	-8.5144	17.6111	25.1000 
887.221	0.0073	-0.5215	1.2886	-3.9771	-9.7009	16.5125	25.0800 
887.241	0.0586	-0.5327	1.7246	1.3623	-10.7886	15.3479	25.0800 
887.290	0.0879	-0.5957	1.9463	6.5643	-11.8927	14.1394	25.0800 
887.295	0.1240	-0.8101	1.9761	11.6510	-12.8430	13.0078	25.0800 
887.300	0.1177	-0.9248	1.7729	16.4850	-13.6230	12.1783	25.0900 
887.320	0.2285	-0.9468	1.3794	20.7312	-14.8151	11.8707	25.0800 
887.340	0.0015	-0.9468	1.0142	24.3622	-16.9904	12.2992	25.0700 
887.360	-0.0723	-1.0029	0.9165	27.5317	-20.0940	12.0740	25.0700 
887.380	-0.1045	-1.2539	0.9556	30.0201	-22.4890	11.6016	25.0600 
887.400	-0.5815	-1.3472	0.2969	31.8494	-23.7250	11.6180	25.0700 
887.420	-0.3955	-1.2305	0.1631	32.2394	-25.0433	12.3706	25.0700 
887.440	0.1484	-0.9204	0.7651	31.1572	-26.2079	13.8647	25.0700 
887.462	0.1812	-0.7563	0.8623	29.6741	-26.6089	15.5731	25.0700 
887.479	0.3887	-1.0571	0.4155	27.8668	-26.3397	16.9849	25.0600 
887.541	0.3242	-0.2573	0.8394	24.7083	-24.1479	18.7537	25.0600 
887.544	-0.5181	0.6582	0.5332	21.9836	-20.6543	18.7866	25.0400 
887.544	-1.8960	-0.1768	1.4404	17.9736	-17.8033	18.6823	25.0300 
887.559	1.5635	-2.0220	3.8613	12.9913	-17.6331	19.1272	25.0700 
887.579	-0.1567	-0.1235	1.6860	8.4430	-18.7207	19.4403	25.0900 
887.599	0.2866	-0.1416	1.1328	6.9763	-19.3359	19.1217	25.1200 
887.619	0.1772	-0.0747	1.0796	6.3446	-19.4733	18.9734	25.1100 
887.639	0.1450	-0.0840	1.0576	5.9766	-19.2645	18.9240	25.0800 
887.659	0.1494	-0.0728	1.0210	5.5096	-18.9240	18.9349	25.1100 
887.679	0.1143	-0.0894	1.0469	5.1141	-18.6273	18.8855	25.1100 
887.738	0.1318	-0.0679	1.0171	4.8120	-18.3856	18.8031	25.1000 
887.742	0.1626	-0.0728	1.0039	4.4769	-18.2758	18.7317	25.0900 
887.742	0.1821	-0.0767	0.9922	3.9880	-18.2703	18.7372	25.1000 
887.758	0.1826	-0.1279	1.0342	3.4222	-18.2428	18.8361	25.1000 
887.778	0.1460	-0.1030	1.0210	2.7795	-18.0670	19.0009	25.1000 
887.797	0.1377	-0.1260	1.0288	2.1313	-17.8363	19.1602	25.1000 
887.818	0.1396	-0.1270	1.0234	1.5546	-17.5781	19.3414	25.1000 
887.840	0.1245	-0.1377	1.0259	0.9283	-17.2540	19.5172	25.1000 
887.858	0.1270	-0.1519	1.0225	0.2032	-16.8475	19.6655	25.1000 
887.878	0.1187	-0.1597	1.0176	-0.6702	-16.3531	19.7809	25.1200 
887.927	0.1079	-0.1650	1.0361	-1.7743	-15.8313	19.8743	25.1000 
887.931	0.1216	-0.1958	1.0098	-3.0322	-15.2930	20.0006	25.1000 
887.937	0.1226	-0.2090	0.9897	-4.3066	-14.7766	20.1324	25.1200 
887.957	0.1064	-0.2485	1.0122	-5.4272	-14.3317	20.2643	25.1200 
887.977	0.0977	-0.2451	1.0049	-6.2787	-13.9307	20.3632	25.1000 
887.997	0.0732	-0.2471	1.0122	-6.8280	-13.5132	20.3687	25.1200 
888.017	0.0752	-0.2632	1.0073	-7.2015	-13.0408	20.2478	25.1200 
888.037	0.0630	-0.2720	1.0190	-7.3993	-12.5244	20.0116	25.1200 
888.059	0.0786	-0.2529	1.0293	-7.5696	-11.9751	19.7150	25.1100 
888.076	0.0703	-0.2168	1.0396	-7.9321	-11.4203	19.4843	25.1200 
888.119	0.0918	-0.2651	0.9824	-8.5913	-10.8929	19.3689	25.1200 
888.121	0.0869	0.0918	1.0508	-9.4482	-10.4480	19.6216	25.1200 
888.136	0.0864	0.1401	1.2710	-11.3489	-10.2502	20.5444	25.1400 
888.157	0.1660	0.1479	1.9956	-17.5397	-10.1404	22.6978	25.1500 
888.176	0.4814	-0.0122	1.9258	-28.9545	-9.6295	25.2905	25.1400 
888.196	0.5210	0.0645	2.1118	-42.8687	-7.8827	27.5262	25.1000 
888.216	0.4233	-0.5215	4.4243	-53.5529	-3.9386	27.4933	25.1000 
888.236	0.9595	0.4585	1.7061	-54.0253	-2.1204	28.3777	25.1000 
888.256	0.8662	0.3330	0.5034	-51.2128	-1.7743	29.6686	25.1000 
888.302	0.7778	0.2104	0.3208	-47.8235	-2.2742	30.0037	25.1000 
888.306	0.6768	0.1450	0.8857	-44.6320	-3.1256	29.2841	25.1000 
888.315	0.4814	0.0947	1.2217	-40.5670	-4.3726	27.9108	25.0900 
888.335	0.0850	-0.0483	1.2515	-34.9695	-5.8337	26.1584	25.0900 
888.355	-0.1162	-0.2070	1.1226	-28.7952	-7.2235	24.4995	25.0700 
888.375	-0.2500	-0.4160	1.0874	-22.5934	-8.5034	23.2855	25.1000 
888.395	-0.3062	-0.5015	1.1328	-16.4850	-9.6625	22.5330	25.0800 
888.415	-0.3374	-0.5435	1.1611	-10.5029	-10.7666	22.2034	25.0800 
888.434	-0.2046	-0.5688	1.3340	-4.9658	-11.9257	22.3187	25.0700 
888.455	0.0518	-0.6021	1.7012	0.0494	-13.1836	22.5989	25.0700 
888.475	0.1343	-0.6440	1.8623	5.1251	-14.4800	22.5769	25.0600 
888.495	0.1782	-0.8320	1.9131	10.3546	-15.7764	22.1429	25.0700 
888.517	0.2739	-1.0293	1.8901	15.4578	-17.0453	21.6321	25.0600 
888.562	0.2710	-1.2998	1.5361	20.3522	-18.3472	21.2640	25.0600 
888.564	0.1162	-1.4067	1.1841	25.0708	-19.7369	20.2643	25.0500 
888.575	-0.3076	-1.8306	0.6533	29.1632	-20.8411	18.3362	25.0400 
888.594	-1.0400	-2.3555	0.3521	32.2064	-21.8024	16.4026	25.0400 
888.614	-0.6880	-2.5254	-0.5747	33.3380	-24.0491	15.4358	25.0400 
888.634	-0.4414	-1.9048	-0.1450	30.9924	-25.3784	16.3971	25.0500 
888.654	0.1343	0.3516	1.3340	26.5485	-23.1647	18.2428	25.0300 
888.675	0.4033	0.1948	0.5151	22.0276	-20.9180	20.3027	25.0300 
888.693	-0.9697	0.1270	1.3110	17.3584	-19.5007	20.5280	25.0300 
888.713	0.8481	-2.1655	4.0518	11.2061	-20.1709	21.5442	25.0500 
888.746	-0.2856	-0.0732	1.7300	7.9321	-21.2860	20.9784	25.0800 
888.753	0.1582	-0.1426	1.2246	6.7346	-21.4893	20.5609	25.0800 
888.773	0.2017	-0.0474	1.0225	6.3611	-21.5826	20.3577	25.0800 
888.793	0.1548	-0.0605	1.0361	6.0864	-21.5002	20.1764	25.0700 
888.813	0.1563	-0.0674	1.0288	5.8173	-21.4014	20.0446	25.1000 
888.833	0.1597	-0.0591	1.0073	5.4437	-21.2805	19.9127	25.0800 
888.853	0.1611	-0.0728	1.0225	5.0977	-21.1652	19.7864	25.1000 
888.874	0.1606	-0.0479	0.9980	4.8450	-21.0883	19.6710	25.0900 
888.892	0.1860	-0.0625	0.9897	4.6362	-21.0004	19.6106	25.0700 
888.936	0.1904	-0.0884	0.9990	4.3835	-20.8905	19.5721	25.0800 
888.938	0.1826	-0.0845	1.0088	4.1364	-20.8136	19.5337	25.1000 
888.953	0.1812	-0.0811	1.0083	3.9056	-20.7587	19.4952	25.0900 
888.972	0.1997	-0.1104	1.0239	3.6530	-20.6818	19.4733	25.0900 
888.992	0.1821	-0.0933	1.0259	3.3563	-20.5389	19.4678	25.0700 
889.012	0.1655	-0.0801	1.0024	3.0048	-20.2313	19.4733	25.1000 
889.032	0.1904	-0.0889	0.9966	2.5159	-19.8468	19.5007	25.0800 
889.052	0.1636	-0.1001	1.0181	1.8677	-19.3909	19.5557	25.0800 
889.071	0.1426	-0.1079	1.0137	1.1536	-18.9404	19.6326	25.0700 
889.135	0.1382	-0.0977	0.9785	0.4010	-18.5339	19.7589	25.0800 
889.137	0.1309	-0.1187	1.0039	-0.3186	-18.1000	19.8798	25.0900 
889.137	0.1270	-0.1587	1.0210	-1.1591	-17.6056	19.9786	25.1100 
889.151	0.1313	-0.1680	1.0225	-2.1149	-17.0673	20.0226	25.0900 
889.170	0.1343	-0.1787	1.0132	-2.9608	-16.5179	19.9896	25.0800 
889.191	0.1196	-0.1943	1.0215	-3.5706	-15.9247	19.8358	25.1100 
889.212	0.1318	-0.1919	1.0264	-4.0540	-15.2765	19.6051	25.0900 
889.231	0.1143	-0.2378	1.0684	-4.5813	-14.6283	19.3964	25.1000 
889.250	0.0942	-0.1963	1.0601	-5.2515	-13.9856	19.2426	25.1100 
889.270	0.0747	-0.2109	1.0757	-6.1359	-13.3704	19.0778	25.0900 
889.324	0.1353	-0.0640	1.0161	-7.1246	-12.8101	19.0833	25.1100 
889.327	0.0015	0.4150	1.0991	-8.3057	-12.3706	19.3579	25.1100 
889.330	0.0454	0.4629	1.9663	-12.7002	-12.2113	20.5060	25.1200 
889.350	0.3394	0.2271	1.9507	-22.5220	-12.0905	22.3627	25.1200 
889.370	0.5728	0.1519	1.5186	-36.4032	-11.5796	24.4995	25.1000 
889.390	0.6172	-1.4551	3.7983	-49.0375	-8.2947	24.1644	25.0900 
889.410	0.7236	0.5024	3.4434	-52.2510	-5.5536	22.5769	25.0800 
889.430	0.6563	0.5015	0.7783	-50.2515	-4.9274	22.7417	25.0800 
889.450	0.5664	0.3047	0.2749	-46.7908	-5.3668	23.1812	25.0700 
889.470	0.5845	0.2148	0.8071	-43.5938	-5.7074	22.8076	25.0600 
889.490	0.4619	0.1055	1.1460	-39.9902	-5.9985	21.6980	25.0700 
889.509	0.2793	-0.0166	1.0869	-34.7992	-6.5039	20.3082	25.0700 
889.569	0.1753	-0.1328	0.9492	-28.9929	-7.1906	18.9789	25.1000 
889.572	-0.0483	-0.3237	0.9517	-23.3240	-7.9211	17.8528	25.0700 
889.572	-0.1479	-0.4028	1.0679	-17.6990	-8.8495	17.1387	25.0500 
889.591	-0.2217	-0.4531	1.2441	-12.1564	-9.9701	16.8420	25.0600 
889.609	-0.2061	-0.5029	1.3613	-6.8665	-11.1566	16.8805	25.0500 
889.629	0.0005	-0.5776	1.5454	-1.8622	-12.4585	17.1112	25.0600 
889.648	0.1299	-0.6152	1.7202	3.0762	-13.8318	17.1826	25.0500 
889.668	0.2065	-0.7368	1.9053	8.0640	-15.1392	16.7651	25.0600 
889.691	0.1772	-0.8828	1.9302	12.9968	-16.1719	15.9412	25.0500 
889.708	0.2017	-1.1016	1.7705	17.7429	-17.0343	15.2380	25.0300 
889.756	0.2661	-1.2935	1.4863	22.3956	-18.0286	14.9304	25.0500 
889.758	-0.1074	-1.4766	0.8882	26.8561	-19.2645	14.0625	25.0400 
889.768	-0.4741	-1.7964	0.6309	30.7782	-20.5884	12.5739	25.0500 
889.788	-1.2607	-2.4004	-0.0146	33.8379	-20.2753	10.2502	25.0400 
889.808	-0.8784	-1.7480	-0.8633	34.8706	-19.6765	9.1791	25.0400 
889.828	-0.1177	-0.7466	1.0142	30.7782	-19.8578	12.1179	25.0200 
889.847	0.4951	0.4028	1.0752	26.3562	-18.1274	15.2380	25.0100 
889.869	-0.0269	-0.2183	1.0957	21.5277	-16.8475	17.2430	25.0200 
889.887	-0.5029	0.2319	1.9155	16.6168	-16.4301	17.3529	25.0000 
889.907	0.0376	-0.1748	1.6528	11.1237	-17.9242	18.2373	25.0500 
889.953	-0.2192	-0.0894	1.7397	8.6078	-18.9954	17.7429	25.0600 
889.955	0.1641	-0.0405	1.0884	7.6575	-19.3359	17.5616	25.0600 
889.967	0.2510	-0.0522	1.0049	7.2290	-19.3304	17.4408	25.0700 
889.987	0.1367	-0.0542	1.0703	6.8939	-19.0558	17.3584	25.0700 
890.007	0.1611	-0.0532	1.0293	6.4929	-18.8141	17.2925	25.0700 
890.029	0.1431	-0.0596	1.0293	6.0535	-18.6108	17.2375	25.0600 
890.048	0.1543	-0.0576	1.0229	5.7239	-18.4625	17.1771	25.0700 
890.066	0.1733	-0.0576	1.0078	5.4767	-18.4076	17.1112	25.0800 
890.088	0.1802	-0.0542	0.9927	5.2844	-18.4021	17.0782	25.0800 
890.106	0.1841	-0.0620	0.9893	5.0043	-18.3691	17.0782	25.0800 
890.140	0.1938	-0.0771	0.9951	4.6527	-18.3252	17.1167	25.0700 
890.146	0.1929	-0.0747	1.0015	4.3341	-18.2318	17.1716	25.0700 
890.166	0.2119	-0.0850	0.9912	4.0045	-18.0780	17.2815	25.0700 
890.186	0.1807	-0.1104	1.0371	3.6365	-17.8308	17.4023	25.0600 
890.206	0.1621	-0.0889	1.0244	3.2135	-17.4683	17.5012	25.0800 
890.226	0.1577	-0.0874	1.0171	2.6697	-17.0782	17.5946	25.0700 
890.246	0.1470	-0.0977	1.0249	2.0435	-16.6882	17.6990	25.0900 
890.265	0.1611	-0.1006	0.9941	1.3348	-16.2927	17.8638	25.0700 
890.286	0.1382	-0.1108	0.9976	0.5383	-15.8533	18.1110	25.0700 
890.306	0.1021	-0.1724	1.0444	-0.2966	-15.3314	18.3472	25.0700 
890.324	0.1099	-0.1299	1.0010	-1.1371	-14.7821	18.5229	25.0700 
890.344	0.1069	-0.1519	1.0181	-2.0050	-14.1833	18.6053	25.0800 
890.377	0.1045	-0.1777	1.0239	-2.9388	-13.5516	18.6163	25.0900 
890.385	0.1030	-0.1938	1.0317	-3.6530	-12.8870	18.5120	25.0800 
890.405	0.0991	-0.2173	1.0532	-4.1858	-12.2058	18.3417	25.0600 
890.425	0.0908	-0.2275	1.0552	-4.6967	-11.5302	18.1494	25.0900 
890.446	0.0703	-0.2212	1.0449	-5.3064	-10.8435	17.9626	25.0800 
890.466	0.1040	-0.1226	1.0503	-6.0150	-10.1953	17.7924	25.0700 
890.484	0.1099	-0.0737	1.0024	-7.0752	-9.6844	17.8693	25.0700 
890.504	0.0083	0.3257	1.1284	-8.7946	-9.4702	18.5504	25.0900 
890.524	0.1230	0.4121	2.2402	-14.8480	-9.4592	20.6378	25.1000 
890.569	0.5601	-0.0313	2.0205	-27.0319	-8.8440	23.5217	25.1000 
890.571	0.5156	0.2188	1.5146	-41.6547	-6.5259	25.8069	25.0800 
890.584	0.6890	-1.1392	3.8320	-52.8662	-2.1368	24.8785	25.0800 
890.604	1.1187	0.4419	2.3262	-54.4208	-0.5933	24.1699	25.0500 
890.624	0.8672	0.4092	0.9067	-51.9159	-1.1426	23.8678	25.0700 
890.644	0.4482	0.2339	0.4170	-48.4442	-2.4500	22.9120	25.0600 
890.663	0.3086	0.1865	0.6787	-44.9451	-3.6145	21.4453	25.0600 
890.683	0.1055	0.0249	1.1807	-40.4736	-4.5319	19.9292	25.0700 
890.705	0.0806	-0.0903	1.2261	-34.9420	-5.3448	18.6932	25.0700 
890.766	0.0454	-0.3267	0.9180	-28.9270	-6.1249	17.7814	25.0600 
890.768	-0.0454	-0.4438	0.8794	-22.8625	-6.8555	17.1277	25.0500 
890.768	-0.1699	-0.5166	1.1089	-17.0068	-7.7179	16.8091	25.0500 
890.783	-0.2012	-0.5430	1.2231	-11.3654	-8.7506	16.8311	25.0500 
890.803	-0.0820	-0.6260	1.3369	-6.0699	-9.9921	17.2156	25.0400 
890.823	0.0825	-0.6729	1.5107	-1.0437	-11.4917	17.6935	25.0400 
890.843	0.2603	-0.6943	1.7544	4.0155	-13.0957	17.7759	25.0600 
890.862	0.2334	-0.7417	1.8320	9.0527	-14.5459	17.1771	25.0500 
890.884	0.0796	-0.9106	1.8896	13.8593	-15.6555	15.8423	25.0400 
890.903	0.0220	-1.0811	1.9595	18.7537	-16.7706	14.6667	25.0300 
890.956	-0.2437	-1.3091	1.4375	23.7415	-18.1439	14.1174	25.0300 
890.959	-0.4478	-1.5972	0.8140	28.4106	-19.8468	13.2550	25.0300 
890.962	-0.9434	-2.5557	0.1982	31.8439	-21.8518	12.4146	25.0300 
890.981	-0.9600	-2.6294	-0.9565	33.3984	-23.9063	12.2443	25.0200 
891.002	-0.3330	-0.8408	0.1299	30.1465	-24.2413	14.2877	25.0200 
891.021	0.3096	0.3784	1.5410	25.6311	-22.1484	16.6882	25.0200 
891.044	0.3823	-0.1709	0.9297	20.5829	-20.1379	19.2206	25.0200 
891.061	-0.7104	-0.0137	1.5317	15.7434	-18.7372	19.7809	25.0000 
891.081	-0.0479	-0.3403	2.0728	10.0525	-19.1052	20.1764	25.0200 
891.101	-0.1641	-0.1309	1.8945	6.8390	-20.2258	19.6490	25.0400 
891.153	0.1807	-0.0757	1.0732	5.9052	-20.5774	19.2920	25.0600 
891.159	0.2539	-0.0845	1.0239	5.7184	-20.6488	19.0997	25.0600 
891.161	0.1440	-0.0576	1.0469	5.6195	-20.4565	18.8910	25.0400 
891.182	0.1318	-0.0439	1.0371	5.4767	-20.2588	18.6603	25.0700 
891.201	0.1543	-0.0503	1.0142	5.1855	-20.1050	18.4845	25.0600 
891.220	0.1426	-0.0508	1.0059	4.9438	-19.9347	18.2977	25.0700 
891.240	0.1592	-0.0278	0.9785	4.8779	-19.8523	18.0835	25.0600 
891.260	0.1943	-0.0215	0.9521	4.8175	-19.8853	17.9517	25.0600 
891.280	0.1841	-0.0864	1.0278	4.5319	-19.9017	17.8967	25.0600 
891.300	0.1787	-0.0620	0.9995	4.2023	-19.9017	17.8473	25.0600 
891.320	0.1885	-0.0737	1.0063	3.9441	-19.8578	17.8033	25.0700 
891.339	0.1807	-0.0835	1.0264	3.7408	-19.7424	17.7484	25.0600 
891.398	0.1816	-0.0742	1.0190	3.5101	-19.5667	17.6660	25.0700 
891.401	0.1694	-0.0762	1.0273	3.1915	-19.3414	17.6111	25.0500 
891.401	0.1680	-0.0835	1.0205	2.6917	-19.0887	17.6001	25.0600 
891.419	0.1685	-0.0835	1.0127	2.1533	-18.8141	17.6001	25.0700 
891.439	0.1553	-0.0796	1.0044	1.5436	-18.5284	17.6276	25.0600 
891.459	0.1563	-0.0991	1.0117	0.9064	-18.2043	17.6935	25.0700 
891.479	0.1377	-0.0957	0.9907	0.3076	-17.8088	17.8088	25.0700 
891.499	0.1367	-0.1108	1.0039	-0.2856	-17.3529	17.8967	25.0500 
891.520	0.1323	-0.1436	1.0156	-0.9888	-16.8585	17.9681	25.0600 
891.539	0.1279	-0.1289	1.0107	-1.7523	-16.2378	17.9901	25.0700 
891.595	0.1289	-0.1631	1.0254	-2.5433	-15.4907	17.9132	25.0600 
891.599	0.1187	-0.1675	1.0288	-3.2959	-14.6887	17.7374	25.0600 
891.599	0.0908	-0.2109	1.0596	-4.0155	-13.8538	17.4847	25.0700 
891.618	0.0913	-0.1909	1.0635	-4.6527	-13.0902	17.1936	25.0700 
891.638	0.0620	-0.2065	1.0566	-5.2295	-12.4036	16.8530	25.0700 
891.658	0.0854	-0.1309	1.0781	-5.8502	-11.7773	16.5289	25.0700 
891.678	0.1045	-0.0610	1.0337	-6.6083	-11.2939	16.4246	25.0800 
891.698	-0.0044	0.2510	1.1250	-8.0200	-11.1456	16.8695	25.0800 
891.718	0.0020	0.4927	1.8530	-13.2550	-11.2830	18.5175	25.1000 
891.738	0.6372	-0.0508	2.0806	-25.1367	-11.3654	21.0004	25.0800 
891.780	0.4893	0.1748	1.5186	-40.6055	-10.4700	23.3679	25.0800 
891.782	0.5215	-0.1855	4.2441	-51.6357	-6.5094	21.7255	25.0500 
891.797	0.5425	0.6221	2.7485	-52.3334	-3.9001	20.0391	25.0500 
891.818	0.5928	0.3696	0.4082	-49.2023	-3.0927	20.0446	25.0500 
891.837	0.6704	0.2104	0.1343	-45.5383	-3.3289	20.0885	25.0700 
891.857	0.5781	0.1631	0.5923	-42.3468	-3.4552	18.9294	25.0400 
891.877	0.3608	0.1768	1.0361	-38.4851	-3.4717	17.1332	25.0300 
891.897	0.1499	0.0088	1.2461	-33.5358	-4.0430	15.6940	25.0400 
891.917	0.0776	-0.2065	1.1099	-27.8943	-4.8615	14.6832	25.0400 
891.967	-0.0698	-0.4360	0.9990	-21.7529	-5.6909	13.9966	25.0400 
891.969	-0.1416	-0.5737	1.0884	-15.7928	-6.5424	13.5846	25.0200 
891.977	-0.0767	-0.6997	1.1909	-10.2942	-7.5311	13.6450	25.0300 
891.997	0.0610	-0.7085	1.2183	-5.1965	-8.6737	13.9362	25.0400 
892.016	0.1108	-0.6689	1.4644	-0.4999	-10.0745	14.0790	25.0300 
892.036	0.0562	-0.6699	1.7598	4.1034	-11.6400	13.7878	25.0300 
892.058	0.0205	-0.7534	1.8999	8.7012	-13.1781	13.0188	25.0100 
892.076	-0.0078	-0.8750	1.7939	13.1781	-14.3701	11.9586	25.0300 
892.096	-0.0049	-1.0532	1.6011	17.4243	-15.0842	10.8600	25.0200 
892.117	0.0576	-1.1177	1.3574	21.5222	-16.1719	10.6842	25.0100 
892.153	-0.2886	-1.1958	0.8794	25.2136	-17.8308	10.6238	25.0100 
892.158	-0.3779	-1.4502	0.7578	28.3337	-20.0555	10.1019	25.0100 
892.176	-0.7905	-2.1240	0.2324	30.5914	-22.3022	9.6954	25.0100 
892.195	-0.6846	-1.9292	-0.3652	31.3770	-24.7083	10.0360	25.0200 
892.215	0.0835	-0.8472	0.3882	28.9655	-25.9058	11.8433	25.0000 
892.235	0.6563	0.0005	1.4004	24.6973	-24.4391	14.2987	25.0100 
892.255	0.1831	0.2188	0.4785	20.8411	-22.3572	15.5402	25.0000 
892.276	-1.1563	-0.0625	1.1533	16.2762	-20.7257	15.4083	25.0100 
892.296	0.5220	-2.0586	4.1797	10.4974	-20.7422	15.7489	25.0200 
892.315	0.4941	-0.5479	1.7939	6.0754	-21.7749	16.4960	25.0500 
892.335	0.2534	-0.1797	1.1089	5.3448	-21.6815	16.1884	25.0400 
892.355	0.2134	-0.0737	1.0259	5.0702	-21.5497	16.1224	25.0300 
892.391	0.1216	-0.0757	1.0610	4.8340	-21.1597	16.0730	25.0300 
892.394	0.0903	-0.0781	1.0581	4.5209	-20.6158	15.9631	25.0400 
892.414	0.1509	-0.0918	1.0142	4.0759	-20.0500	15.8807	25.0300 
892.434	0.1333	-0.0869	1.0229	3.6694	-19.5282	15.8038	25.0400 
892.454	0.1294	-0.0435	0.9731	3.5266	-19.1821	15.7269	25.0400 
892.474	0.1455	-0.0723	1.0078	3.3673	-19.0063	15.6885	25.0300 
892.493	0.1421	-0.0796	0.9985	3.0103	-18.8251	15.7104	25.0300 
892.514	0.1392	-0.0825	0.9971	2.5983	-18.6658	15.7489	25.0200 
892.535	0.1367	-0.1089	1.0166	2.1753	-18.5669	15.8203	25.0500 
892.588	0.1230	-0.1421	1.0522	1.8292	-18.4625	15.8807	25.0400 
892.590	0.1274	-0.1104	1.0234	1.5381	-18.3197	15.9192	25.0400 
892.593	0.1260	-0.1045	1.0103	1.1865	-18.1329	15.9686	25.0400 
892.613	0.1304	-0.1055	1.0127	0.6757	-17.9187	16.0400	25.0400 
892.633	0.1172	-0.0933	1.0083	0.0769	-17.6935	16.1444	25.0300 
892.653	0.1304	-0.1396	1.0190	-0.6812	-17.3859	16.3751	25.0300 
892.673	0.0986	-0.1416	1.0283	-1.6150	-16.9849	16.6992	25.0400 
892.693	0.1021	-0.1494	1.0161	-2.7795	-16.4685	17.0068	25.0500 
892.713	0.0874	-0.1743	1.0186	-4.0814	-15.8368	17.2540	25.0400 
892.733	0.0684	-0.2124	1.0288	-5.4163	-15.1227	17.3584	25.0500 
892.777	0.0625	-0.2417	1.0229	-6.6193	-14.3481	17.2815	25.0400 
892.780	0.0659	-0.2520	1.0181	-7.3938	-13.5791	17.0123	25.0500 
892.793	0.0840	-0.2476	1.0244	-7.7509	-12.7991	16.6882	25.0500 
892.812	0.0586	-0.2500	1.0435	-8.0585	-12.0026	16.3861	25.0700 
892.832	0.0342	-0.2266	1.0298	-8.5474	-11.3489	16.1884	25.0600 
892.852	0.0776	-0.0566	1.1006	-9.4427	-11.0742	16.3037	25.0600 
892.872	-0.0039	0.2295	1.2256	-11.3489	-10.5798	16.9574	25.0600 
892.892	0.1807	0.6025	1.9336	-16.2158	-10.0854	19.0723	25.0700 
892.912	0.5313	0.0239	1.8594	-26.9550	-8.4814	21.7914	25.0700 
892.933	0.4922	0.3306	1.5815	-40.9570	-4.3231	23.4778	25.0500 
892.952	0.6294	-0.1816	4.0967	-51.2292	0.7031	22.8021	25.0500 
892.972	1.3350	0.3569	2.3872	-52.9486	2.0490	23.6371	25.0400 
893.015	0.9805	0.2783	0.4790	-50.5701	0.9613	24.4391	25.0300 
893.017	0.5815	0.1870	0.2656	-47.7411	-0.9283	23.9996	25.0400 
893.031	0.2212	0.1563	0.8452	-44.7253	-2.9773	22.8900	25.0300 
893.051	0.1021	0.1074	1.3286	-40.8527	-4.9603	21.6376	25.0400 
893.071	-0.1655	-0.0874	1.2891	-35.7605	-6.7401	20.3632	25.0300 
893.091	-0.3076	-0.2446	1.0083	-29.8608	-8.1628	19.2316	25.0100 
893.111	-0.3662	-0.3960	0.8862	-23.8184	-9.3274	18.6548	25.0300 
893.131	-0.3384	-0.4438	1.0024	-18.2867	-10.4700	18.5834	25.0400 
893.151	-0.2705	-0.5044	1.2061	-13.1342	-11.5741	18.9734	25.0300 
893.214	-0.1392	-0.5522	1.3188	-8.2013	-12.7222	19.6051	25.0300 
893.216	0.1104	-0.5957	1.6113	-3.3508	-13.9856	20.2533	25.0100 
893.216	0.2402	-0.6543	1.7261	1.4941	-15.2600	20.5005	25.0200 
893.230	0.2886	-0.8052	1.6675	6.2018	-16.3531	20.0555	25.0100 
893.250	0.1704	-0.9639	1.7183	10.7062	-17.2430	19.0778	24.9800 
893.270	0.1001	-1.2080	1.7183	14.9634	-17.9791	17.8967	24.9900 
893.290	0.1440	-1.3188	1.3950	19.0723	-18.8470	16.8970	25.0100 
893.310	-0.3701	-1.4614	0.9331	23.0878	-20.0610	15.6720	24.9800 
893.330	-0.6260	-1.7715	0.5483	26.6199	-21.4563	14.0295	25.0000 
893.353	-1.2397	-2.5010	-0.6289	28.6029	-21.0498	12.6068	24.9900 
893.412	-0.6025	-2.7192	-1.2588	26.8616	-20.6158	13.3704	24.9900 
893.415	0.0640	0.4146	2.0508	22.4396	-18.6218	15.1117	24.9700 
893.415	-0.1484	-0.1606	1.3931	17.5781	-17.1167	16.0126	24.9600 
893.430	0.7300	-2.1079	4.9463	12.4640	-17.0123	16.3257	24.9800 
893.449	0.2456	-0.2026	1.3267	7.1082	-18.7482	17.2980	25.0100 
893.469	0.2432	-0.1235	1.2144	5.1855	-19.6930	17.3254	25.0000 
893.489	0.1455	-0.0337	1.0439	4.5648	-19.8798	17.3474	25.0100 
893.509	0.1821	-0.0503	0.9883	4.2902	-19.6985	17.4408	25.0200 
893.529	0.1538	-0.1045	1.0410	3.9276	-19.2865	17.5836	25.0400 
893.549	0.1284	-0.0557	0.9912	3.5321	-18.9294	17.6935	25.0400 
893.607	0.1455	-0.0967	1.0342	3.0432	-18.6548	17.7924	25.0300 
893.610	0.1519	-0.0635	1.0000	2.6807	-18.4351	17.8967	25.0200 
893.611	0.1606	-0.0747	0.9995	2.4225	-18.2813	18.0176	25.0500 
893.628	0.1323	-0.0791	1.0166	2.1698	-18.2263	18.1659	25.0200 
893.648	0.1582	-0.0854	1.0078	1.7798	-18.1824	18.3307	25.0300 
893.668	0.1528	-0.1089	1.0298	1.3074	-18.1219	18.5504	25.0500 
893.688	0.1475	-0.1104	1.0225	0.9283	-17.9846	18.7866	25.0400 
893.708	0.1299	-0.0991	1.0264	0.5658	-17.7924	19.0009	25.0300 
893.727	0.1338	-0.1021	1.0166	0.1703	-17.5891	19.2316	25.0300 
893.749	0.1162	-0.1226	1.0249	-0.3845	-17.3364	19.4952	25.0400 
893.797	0.1309	-0.1445	1.0225	-1.0876	-17.0618	19.7699	25.0300 
893.799	0.1367	-0.1362	1.0049	-1.8567	-16.7706	20.0281	25.0200 
893.807	0.1309	-0.1509	1.0059	-2.7795	-16.3861	20.3137	25.0400 
893.827	0.1201	-0.1646	1.0068	-3.7958	-15.9357	20.6104	25.0400 
893.847	0.1201	-0.1802	1.0024	-4.7296	-15.4358	20.8521	25.0300 
893.867	0.0991	-0.2017	1.0142	-5.5426	-14.8810	21.0278	25.0400 
893.887	0.0864	-0.2227	1.0137	-6.1798	-14.3042	21.0938	25.0400 
893.907	0.0918	-0.2241	1.0215	-6.5588	-13.7329	21.0718	25.0200 
893.927	0.0781	-0.2188	1.0278	-6.7950	-13.1891	20.9949	25.0300 
893.949	0.0669	-0.2354	1.0386	-7.0367	-12.6013	20.8411	25.0300 
893.992	0.0728	-0.2305	1.0498	-7.2565	-11.9861	20.6818	25.0400 
893.994	0.0483	-0.1763	1.0708	-7.6520	-11.4258	20.6104	25.0400 
894.006	0.0913	-0.0928	1.0454	-8.4265	-11.0522	20.7422	25.0400 
894.026	-0.0298	0.3071	1.1016	-9.4373	-10.8875	21.3080	25.0400 
894.046	-0.0562	0.6924	1.6494	-12.8815	-10.9973	22.7692	25.0700 
894.066	0.1353	0.0249	1.9917	-21.5112	-11.2335	25.0433	25.0500 
894.086	0.5552	0.0474	1.4058	-35.0519	-11.8927	28.3832	25.0300 
894.106	0.3110	-0.2397	2.6055	-48.2245	-10.1678	30.8002	25.0400 
894.126	0.5703	0.4517	3.0903	-52.8003	-6.9379	31.4374	25.0300 
894.146	0.7026	0.4111	1.2671	-51.5314	-5.0098	32.7667	25.0300 
894.166	0.8345	0.1650	0.1958	-47.8894	-4.3561	33.8159	25.0400 
894.185	0.8662	0.0767	0.3760	-44.3573	-4.1254	33.7610	25.0100 
894.226	0.6021	0.0430	1.0205	-40.8911	-4.2902	32.4591	25.0000 
894.229	0.3018	-0.0337	1.2271	-36.3538	-5.0208	30.8221	25.0000 
894.245	-0.0605	-0.2544	1.0664	-30.7782	-6.1908	29.3280	25.0100 
894.265	-0.1943	-0.4106	0.9951	-25.1257	-7.3389	28.1689	25.0200 
894.285	-0.3252	-0.5767	1.0088	-19.6436	-8.3276	27.5592	25.0100 
894.305	-0.3037	-0.6006	1.0664	-14.3976	-9.2670	27.5043	25.0000 
894.325	-0.1079	-0.6191	1.2134	-9.5856	-10.3107	27.9987	25.0000 
894.344	0.0439	-0.6460	1.3398	-5.1581	-11.5082	28.5425	25.0100 
894.364	0.1489	-0.6685	1.5430	-0.9778	-12.8815	28.7567	25.0100 
894.415	0.1089	-0.7207	1.6650	3.2245	-14.2328	28.4271	24.9900 
894.418	0.0850	-0.8271	1.6992	7.3773	-15.3534	27.7844	24.9800 
894.424	0.1416	-0.9434	1.6064	11.1456	-16.2927	27.1857	24.9700 
894.444	0.2456	-1.0781	1.3447	14.5349	-17.3749	26.6858	24.9800 
894.464	0.2227	-1.1143	1.1284	17.6990	-18.7427	25.9772	24.9800 
894.483	-0.2476	-1.1216	0.8540	20.5609	-20.3192	24.9280	24.9800 
894.504	-0.4546	-1.3716	0.7832	23.1976	-22.0331	23.4613	24.9800 
894.524	-1.1401	-1.6997	0.1963	25.5542	-22.8625	21.9672	24.9700 
894.544	-1.0142	-1.4634	-0.1719	27.1912	-22.3407	20.6049	24.9700 
894.564	-0.2466	-0.4370	0.6055	24.8401	-23.2031	22.6923	24.9800 
894.599	0.1929	0.2954	0.9092	21.3135	-21.6211	25.3180	24.9800 
894.603	0.5200	-0.0444	0.1929	17.4902	-19.8853	27.5757	24.9600 
894.623	0.7285	1.3501	1.0527	12.1289	-19.0448	29.1467	24.9700 
894.643	0.5210	-0.7583	2.0029	4.7736	-19.6545	30.3333	24.9900 
894.663	-0.1074	-0.1792	1.4263	2.1643	-20.0006	30.8386	25.0100 
894.683	0.1865	-0.0630	0.9985	1.8896	-20.1599	30.8276	25.0000 
894.703	0.2422	-0.0283	0.9238	1.9446	-20.3192	30.7672	24.9900 
894.723	0.1992	-0.0684	1.0049	1.8018	-20.0830	30.8112	25.0100 
894.742	0.1338	-0.0728	1.0229	1.4886	-19.7205	30.9485	25.0100 
894.762	0.1509	-0.0991	1.0386	1.1041	-19.3579	31.0529	25.0200 
894.782	0.1450	-0.1084	1.0630	0.8624	-19.1107	31.1407	25.0100 
894.861	0.1523	-0.1025	1.0439	0.7690	-18.9899	31.2067	25.0300 
894.864	0.1504	-0.0913	1.0371	0.6702	-18.8800	31.2671	25.0100 
894.864	0.1504	-0.0820	1.0078	0.4999	-18.7756	31.3330	25.0300 
894.864	0.1475	-0.0840	1.0010	0.2692	-18.7097	31.4044	25.0200 
894.882	0.1582	-0.0898	1.0117	0.1099	-18.5999	31.4758	25.0000 
894.902	0.1519	-0.1011	1.0239	0.0879	-18.4845	31.5417	25.0100 
894.922	0.1475	-0.0952	1.0283	0.0934	-18.3856	31.6022	25.0200 
894.941	0.1523	-0.0981	1.0249	0.0275	-18.2538	31.6626	25.0100 
894.962	0.1558	-0.0952	1.0195	-0.0055	-18.1824	31.7285	25.0100 
894.981	0.1641	-0.0947	1.0303	-0.0055	-18.1274	31.7834	25.0000 
895.002	0.1631	-0.0825	1.0161	0.0055	-18.0396	31.8329	25.0200 
895.046	0.1655	-0.0781	1.0098	-0.0275	-17.9517	31.8823	25.0300 
895.049	0.1611	-0.0786	1.0024	-0.1538	-17.8363	31.9427	25.0300 
895.061	0.1499	-0.0952	1.0273	-0.3131	-17.6880	32.0087	25.0300 
895.081	0.1475	-0.1060	1.0327	-0.3900	-17.5122	32.0581	25.0200 
895.100	0.1533	-0.1084	1.0396	-0.3021	-17.3364	32.0691	25.0300 
895.120	0.1699	-0.0649	0.9893	-0.1044	-17.1771	32.0526	25.0300 
895.140	0.1626	-0.0601	0.9927	0.0000	-17.0233	32.0526	25.0300 
895.160	0.1426	-0.0801	1.0254	0.0330	-16.8750	32.0691	25.0300 
895.183	0.1406	-0.0786	1.0225	0.0275	-16.7542	32.0856	25.0100 
895.246	0.1460	-0.0811	1.0220	0.0165	-16.6278	32.1021	25.0300 
895.248	0.1401	-0.0918	1.0454	0.0549	-16.4905	32.0856	25.0200 
895.248	0.1338	-0.1001	1.0601	0.1703	-16.3586	32.0361	25.0200 
895.260	0.1685	-0.0508	0.9922	0.4395	-16.2433	31.9427	25.0100 
895.280	0.1694	-0.0571	1.0044	0.6812	-16.1444	31.8823	25.0200 
895.299	0.1606	-0.0542	1.0166	0.8350	-16.0181	31.8494	25.0100 
895.319	0.1616	-0.0483	1.0044	0.8844	-15.8588	31.8274	25.0100 
895.340	0.1465	-0.0586	1.0215	0.8350	-15.6720	31.8219	25.0200 
895.359	0.1475	-0.0581	1.0200	0.7690	-15.4907	31.8164	25.0300 
895.379	0.1465	-0.0479	1.0034	0.7251	-15.3479	31.8109	25.0200 
895.444	0.1514	-0.0522	1.0083	0.6812	-15.2325	31.8329	25.0300 
895.446	0.1392	-0.0596	1.0278	0.6427	-15.1172	31.8604	25.0200 
895.446	0.1367	-0.0571	1.0269	0.6152	-15.0018	31.8713	25.0200 
895.459	0.1357	-0.0596	1.0269	0.5603	-14.8810	31.8658	25.0200 
895.479	0.1367	-0.0601	1.0259	0.5054	-14.7766	31.8494	25.0200 
895.499	0.1509	-0.0552	1.0117	0.4669	-14.6942	31.8384	25.0300 
895.518	0.1528	-0.0498	1.0039	0.4065	-14.6173	31.8329	25.0300 
895.538	0.1479	-0.0527	1.0107	0.3186	-14.5404	31.8439	25.0200 
895.558	0.1426	-0.0605	1.0234	0.2197	-14.4415	31.8604	25.0200 
895.580	0.1440	-0.0625	1.0234	0.1318	-14.3317	31.8768	25.0300 
895.636	0.1436	-0.0610	1.0195	0.0604	-14.2163	31.8933	25.0300 
895.639	0.1455	-0.0586	1.0142	-0.0110	-14.0955	31.9153	25.0400 
895.639	0.1416	-0.0610	1.0171	-0.1099	-13.9746	31.9373	25.0300 
895.657	0.1421	-0.0659	1.0254	-0.2197	-13.8757	31.9647	25.0200 
895.678	0.1431	-0.0654	1.0205	-0.3131	-13.7988	31.9922	25.0400 
895.698	0.1421	-0.0615	1.0151	-0.3955	-13.7219	32.0197	25.0300 
895.717	0.1455	-0.0649	1.0146	-0.4724	-13.6505	32.0471	25.0400 
895.737	0.1416	-0.0654	1.0146	-0.5658	-13.5791	32.0801	25.0300 
895.757	0.1406	-0.0698	1.0200	-0.6757	-13.5077	32.1240	25.0100 
895.780	0.1406	-0.0737	1.0239	-0.7855	-13.4418	32.1625	25.0200 
895.823	0.1440	-0.0723	1.0176	-0.8844	-13.3813	32.1954	25.0400 
895.825	0.1460	-0.0630	1.0083	-0.9833	-13.3264	32.2229	25.0300 
895.837	0.1460	-0.0674	1.0137	-1.0986	-13.2715	32.2559	25.0400 
895.857	0.1411	-0.0796	1.0244	-1.2469	-13.2220	32.3053	25.0400 
895.877	0.1436	-0.0820	1.0215	-1.3678	-13.1671	32.3602	25.0300 
895.897	0.1416	-0.0811	1.0259	-1.4502	-13.1122	32.3987	25.0300 
895.917	0.1406	-0.0815	1.0264	-1.5106	-13.0463	32.4316	25.0400 
895.936	0.1431	-0.0781	1.0186	-1.5491	-12.9749	32.4591	25.0000 
895.956	0.1440	-0.0752	1.0186	-1.5820	-12.9089	32.4811	25.0300 
895.976	0.1465	-0.0815	1.0244	-1.6150	-12.8430	32.5031	25.0300 
895.996	0.1436	-0.0791	1.0215	-1.6315	-12.7881	32.5195	25.0400 
896.016	0.1440	-0.0786	1.0181	-1.6370	-12.7386	32.5360	25.0400 
896.069	0.1475	-0.0718	1.0127	-1.6260	-12.6782	32.5415	25.0300 
896.085	0.1460	-0.0752	1.0161	-1.6150	-12.6123	32.5525	25.0400 
896.089	0.1475	-0.0728	1.0142	-1.6095	-12.5464	32.5635	25.0500 
896.095	0.1455	-0.0737	1.0200	-1.6040	-12.4805	32.5690	25.0300 
896.115	0.1440	-0.0757	1.0215	-1.6040	-12.4146	32.5690	25.0300 
896.135	0.1460	-0.0742	1.0215	-1.5985	-12.3596	32.5800	25.0400 
896.155	0.1450	-0.0713	1.0186	-1.5985	-12.3047	32.5909	25.0300 
896.175	0.1455	-0.0698	1.0146	-1.6095	-12.2443	32.5909	25.0200 
896.195	0.1436	-0.0708	1.0181	-1.6425	-12.1783	32.5964	25.0400 
896.215	0.1445	-0.0767	1.0220	-1.6809	-12.1124	32.6019	25.0300 
896.268	0.1455	-0.0737	1.0190	-1.7139	-12.0575	32.6129	25.0400 
896.270	0.1440	-0.0732	1.0220	-1.7413	-12.0081	32.6184	25.0400 
896.274	0.1450	-0.0708	1.0181	-1.7688	-11.9531	32.6129	25.0400 
896.294	0.1450	-0.0693	1.0156	-1.7908	-11.9037	32.6129	25.0300 
896.314	0.1426	-0.0737	1.0225	-1.8237	-11.8542	32.6129	25.0400 
896.334	0.1450	-0.0728	1.0195	-1.8567	-11.8103	32.6239	25.0400 
896.354	0.1440	-0.0732	1.0190	-1.8842	-11.7719	32.6349	25.0400 
896.374	0.1436	-0.0732	1.0190	-1.9116	-11.7279	32.6349	25.0300 
896.393	0.1470	-0.0718	1.0151	-1.9391	-11.6785	32.6349	25.0500 
896.414	0.1450	-0.0737	1.0186	-1.9666	-11.6235	32.6404	25.0400 
896.455	0.1445	-0.0742	1.0210	-1.9940	-11.5741	32.6459	25.0400 
896.457	0.1450	-0.0728	1.0205	-2.0270	-11.5302	32.6459	25.0500 
896.474	0.1470	-0.0732	1.0176	-2.0490	-11.4862	32.6569	25.0400 
896.495	0.1460	-0.0728	1.0195	-2.0819	-11.4368	32.6624	25.0300 
896.513	0.1465	-0.0698	1.0161	-2.1149	-11.3818	32.6624	25.0400 
896.534	0.1450	-0.0732	1.0200	-2.1588	-11.3159	32.6733	25.0500 
896.553	0.1455	-0.0732	1.0205	-2.2028	-11.2555	32.6788	25.0500 
896.573	0.1465	-0.0757	1.0205	-2.2412	-11.2006	32.6843	25.0500 
896.595	0.1440	-0.0752	1.0200	-2.2687	-11.1456	32.6843	25.0400 
896.642	0.1416	-0.0762	1.0229	-2.2852	-11.0962	32.6898	25.0600 
896.645	0.1465	-0.0752	1.0195	-2.2961	-11.0522	32.6953	25.0500 
896.653	0.1445	-0.0732	1.0190	-2.3016	-11.0193	32.6898	25.0500 
896.672	0.1440	-0.0732	1.0200	-2.3016	-10.9863	32.6953	25.0400 
896.692	0.1455	-0.0718	1.0176	-2.2852	-10.9534	32.6898	25.0400 
896.712	0.1479	-0.0679	1.0122	-2.2797	-10.9149	32.6953	25.0500 
896.732	0.1460	-0.0679	1.0137	-2.2906	-10.8765	32.7063	25.0400 
896.752	0.1450	-0.0723	1.0176	-2.3126	-10.8380	32.7118	25.0700 
896.772	0.1479	-0.0728	1.0195	-2.3346	-10.8051	32.7173	25.0500 
896.792	0.1460	-0.0723	1.0181	-2.3511	-10.7831	32.7283	25.0500 
896.839	0.1470	-0.0718	1.0171	-2.3676	-10.7556	32.7448	25.0400 
896.844	0.1475	-0.0703	1.0161	-2.3785	-10.7281	32.7612	25.0500 
896.851	0.1445	-0.0732	1.0220	-2.4005	-10.6897	32.7777	25.0400 
896.871	0.1470	-0.0732	1.0181	-2.4225	-10.6512	32.7887	25.0300 
896.891	0.1455	-0.0718	1.0186	-2.4390	-10.6128	32.7887	25.0400 
896.911	0.1470	-0.0718	1.0176	-2.4500	-10.5798	32.7887	25.0400 
896.931	0.1475	-0.0713	1.0176	-2.4554	-10.5524	32.7832	25.0400 
896.951	0.1470	-0.0713	1.0190	-2.4445	-10.5249	32.7832	25.0500 
896.971	0.1465	-0.0688	1.0151	-2.4335	-10.4974	32.7777	25.0400 
896.993	0.1489	-0.0703	1.0195	-2.4225	-10.4700	32.7777	25.0500 
897.011	0.1479	-0.0679	1.0215	-2.4005	-10.4315	32.7777	25.0500 
897.031	0.1470	-0.0684	1.0205	-2.3840	-10.3986	32.7777	25.0500 
897.090	0.1455	-0.0688	1.0190	-2.3621	-10.3601	32.7832	25.0600 
897.093	0.1504	-0.0645	1.0142	-2.3401	-10.3217	32.7887	25.0600 
897.093	0.1479	-0.0664	1.0186	-2.3291	-10.2832	32.7887	25.0700 
897.110	0.1484	-0.0659	1.0195	-2.3291	-10.2557	32.7942	25.0600 
897.131	0.1479	-0.0684	1.0210	-2.3291	-10.2228	32.7997	25.0600 
897.150	0.1470	-0.0664	1.0200	-2.3291	-10.1953	32.7997	25.0700 
897.170	0.1460	-0.0635	1.0195	-2.3346	-10.1569	32.8052	25.0600 
897.190	0.1460	-0.0630	1.0181	-2.3456	-10.1184	32.8107	25.0500 
897.210	0.1475	-0.0659	1.0186	-2.3730	-10.0800	32.8217	25.0500 
897.230	0.1475	-0.0649	1.0171	-2.4005	-10.0470	32.8271	25.0600 
897.276	0.1475	-0.0684	1.0210	-2.4225	-10.0250	32.8326	25.0400 
897.279	0.1479	-0.0664	1.0205	-2.4280	-10.0085	32.8381	25.0600 
897.289	0.1484	-0.0654	1.0181	-2.4280	-9.9921	32.8436	25.0500 
897.309	0.1504	-0.0674	1.0200	-2.4335	-9.9701	32.8436	25.0600 
897.329	0.1475	-0.0659	1.0195	-2.4390	-9.9426	32.8381	25.0500 
897.349	0.1465	-0.0659	1.0195	-2.4500	-9.9097	32.8326	25.0500 
897.370	0.1470	-0.0654	1.0190	-2.4664	-9.8712	32.8326	25.0600 
897.390	0.1470	-0.0664	1.0205	-2.4774	-9.8328	32.8326	25.0600 
897.409	0.1479	-0.0664	1.0195	-2.4884	-9.7888	32.8326	25.0700 
897.429	0.1470	-0.0620	1.0142	-2.4939	-9.7339	32.8326	25.0700 
897.464	0.1460	-0.0630	1.0190	-2.4939	-9.6844	32.8271	25.0500 
897.469	0.1450	-0.0645	1.0210	-2.4994	-9.6405	32.8217	25.0600 
897.488	0.1465	-0.0620	1.0166	-2.5049	-9.5966	32.8162	25.0800 
897.508	0.1445	-0.0645	1.0200	-2.5159	-9.5526	32.8162	25.0500 
897.528	0.1436	-0.0645	1.0186	-2.5323	-9.5087	32.8107	25.0600 
897.548	0.1445	-0.0630	1.0200	-2.5488	-9.4702	32.8162	25.0700 
897.567	0.1455	-0.0640	1.0186	-2.5543	-9.4427	32.8162	25.0500 
897.588	0.1450	-0.0645	1.0205	-2.5598	-9.4208	32.8217	25.0700 
897.608	0.1431	-0.0625	1.0186	-2.5543	-9.4043	32.8217	25.0500 
897.649	0.1465	-0.0635	1.0176	-2.5433	-9.3878	32.8217	25.0700 
897.651	0.1470	-0.0620	1.0181	-2.5323	-9.3768	32.8162	25.0800 
897.667	0.1475	-0.0630	1.0195	-2.5378	-9.3549	32.8217	25.0700 
897.687	0.1450	-0.0630	1.0210	-2.5433	-9.3329	32.8271	25.0700 
897.707	0.1450	-0.0640	1.0205	-2.5598	-9.3109	32.8271	25.0600 
897.727	0.1479	-0.0620	1.0200	-2.5708	-9.2999	32.8271	25.0700 
897.747	0.1455	-0.0640	1.0205	-2.5708	-9.2780	32.8326	25.0700 
897.767	0.1465	-0.0630	1.0186	-2.5708	-9.2560	32.8381	25.0800 
897.787	0.1465	-0.0625	1.0181	-2.5653	-9.2395	32.8381	25.0800 
897.807	0.1489	-0.0640	1.0186	-2.5543	-9.2120	32.8436	25.0700 
897.826	0.1455	-0.0605	1.0215	-2.5323	-9.1681	32.8491	25.0800 
897.846	0.1465	-0.0625	1.0225	-2.5049	-9.1241	32.8436	25.0800 
897.885	0.1475	-0.0596	1.0186	-2.4774	-9.0857	32.8436	25.0700 
897.889	0.1431	-0.0576	1.0200	-2.4445	-9.0582	32.8381	25.0800 
897.906	0.1431	-0.0596	1.0186	-2.4170	-9.0363	32.8326	25.0800 
897.926	0.1450	-0.0596	1.0195	-2.3895	-9.0198	32.8326	25.0800 
897.946	0.1445	-0.0571	1.0205	-2.3566	-9.0088	32.8326	25.0700 
897.965	0.1440	-0.0537	1.0190	-2.3181	-8.9923	32.8381	25.0900 
897.985	0.1450	-0.0542	1.0171	-2.2852	-8.9758	32.8326	25.1000 
898.005	0.1440	-0.0542	1.0220	-2.2797	-8.9539	32.8271	25.0900 
898.025	0.1440	-0.0537	1.0215	-2.2797	-8.9209	32.8217	25.0900 
898.074	0.1450	-0.0552	1.0215	-2.2906	-8.8989	32.8162	25.0700 
898.076	0.1450	-0.0557	1.0200	-2.3126	-8.8770	32.8162	25.0700 
898.085	0.1440	-0.0552	1.0205	-2.3291	-8.8605	32.8162	25.0700 
898.108	0.1450	-0.0571	1.0220	-2.3511	-8.8440	32.8217	25.0800 
898.124	0.1460	-0.0566	1.0234	-2.3730	-8.8275	32.8271	25.1000 
898.145	0.1445	-0.0581	1.0195	-2.3950	-8.8110	32.8217	25.0700 
898.165	0.1445	-0.0562	1.0234	-2.4225	-8.7946	32.8217	25.0700 
898.184	0.1436	-0.0566	1.0210	-2.4554	-8.7781	32.8217	25.0900 
898.205	0.1460	-0.0586	1.0205	-2.4884	-8.7726	32.8271	25.0800 
898.224	0.1479	-0.0601	1.0215	-2.5214	-8.7616	32.8381	25.0800 
898.261	0.1460	-0.0581	1.0176	-2.5269	-8.7506	32.8381	25.0900 
898.264	0.1475	-0.0601	1.0205	-2.5269	-8.7451	32.8326	25.0800 
898.284	0.1460	-0.0571	1.0186	-2.5159	-8.7341	32.8271	25.0900 
898.304	0.1455	-0.0566	1.0186	-2.5049	-8.7231	32.8271	25.0900 
898.324	0.1465	-0.0586	1.0210	-2.5104	-8.7122	32.8271	25.1000 
898.344	0.1455	-0.0586	1.0215	-2.5159	-8.7012	32.8326	25.0700 
898.363	0.1470	-0.0562	1.0176	-2.5159	-8.6957	32.8436	25.0800 
898.385	0.1484	-0.0566	1.0200	-2.5269	-8.6847	32.8491	25.1000 
898.413	0.1465	-0.0591	1.0293	-2.5378	-8.6847	32.8546	25.0800 
898.424	0.1484	-0.0562	1.0200	-2.5323	-8.7067	32.8656	25.0900 
898.443	0.1460	-0.0552	1.0181	-2.5269	-8.7231	32.8766	25.0800 
898.465	0.1475	-0.0562	1.0166	-2.5323	-8.7341	32.8876	25.0900 
898.500	0.1494	-0.0566	1.0176	-2.5378	-8.7341	32.8876	25.0900 
898.503	0.1465	-0.0562	1.0176	-2.5488	-8.7231	32.8821	25.0900 
898.525	0.1479	-0.0557	1.0161	-2.5543	-8.7122	32.8766	25.1000 
898.544	0.1484	-0.0581	1.0244	-2.5598	-8.7067	32.8766	25.0900 
898.563	0.1509	-0.0576	1.0200	-2.5488	-8.7122	32.8766	25.1000 
898.582	0.1489	-0.0547	1.0181	-2.5378	-8.7286	32.8711	25.1000 
898.602	0.1514	-0.0552	1.0186	-2.5269	-8.7396	32.8601	25.1000 
898.626	0.1504	-0.0566	1.0215	-2.5214	-8.7451	32.8601	25.1100 
898.641	0.1499	-0.0596	1.0269	-2.5269	-8.7451	32.8546	25.1000 
898.699	0.1514	-0.0586	1.0278	-2.5269	-8.7506	32.8601	25.0900 
898.701	0.1582	-0.0596	1.0220	-2.5323	-8.7561	32.8656	25.0900 
898.704	0.1514	-0.0513	1.0127	-2.5323	-8.7506	32.8766	25.0900 
898.722	0.1499	-0.0537	1.0181	-2.5323	-8.7506	32.8821	25.1000 
898.743	0.1519	-0.0562	1.0220	-2.5378	-8.7506	32.8931	25.1100 
898.761	0.1514	-0.0566	1.0215	-2.5378	-8.7671	32.8986	25.1000 
898.781	0.1543	-0.0615	1.0317	-2.5378	-8.7946	32.9095	25.1000 
898.801	0.1563	-0.0571	1.0244	-2.5378	-8.8220	32.9370	25.1200 
898.821	0.1567	-0.0571	1.0225	-2.5378	-8.8495	32.9755	25.1000 
898.841	0.1563	-0.0508	1.0112	-2.5378	-8.8824	33.0139	25.1000 
898.889	0.1523	-0.0503	1.0117	-2.5433	-8.9044	33.0414	25.1000