StartTime: 2018-11-15 20:11:00.594
Time(s)	AngleX(deg)	AngleY(deg)	AngleZ(deg)	T(Â°) 
1792.468	8.2013	4.0814	-7.8113	0.0000 
1792.507	8.1738	4.0869	-7.8333	0.0000 
1792.516	8.1738	4.0649	-7.8387	0.0000 
1792.528	8.1738	4.0375	-7.8772	0.0000 
1792.547	8.1738	4.0375	-7.9651	0.0000 
1792.567	8.1628	4.0540	-8.0859	0.0000 
1792.587	8.1519	4.0869	-8.2068	0.0000 
1792.659	8.1464	4.1254	-8.3276	0.0000 
1792.671	8.1409	4.1583	-8.4155	0.0000 
1792.671	8.1354	4.1693	-8.4869	0.0000 
1792.677	8.1299	4.1858	-8.5803	0.0000 
1792.691	8.1189	4.2133	-8.7012	0.0000 
1792.714	8.0914	4.2517	-8.8550	0.0000 
1792.736	8.0530	4.3176	-9.0527	0.0000 
1792.746	8.0145	4.3835	-9.2560	0.0000 
1792.765	7.9926	4.4275	-9.4318	0.0000 
1792.838	7.9816	4.4495	-9.6075	0.0000 
1792.848	7.9486	4.4550	-9.8163	0.0000 
1792.848	7.9102	4.4769	-10.0415	0.0000 
1792.855	7.8387	4.5044	-10.2557	0.0000 
1792.870	7.7728	4.5264	-10.4590	0.0000 
1792.891	7.7014	4.5319	-10.6622	0.0000 
1792.914	7.6025	4.5264	-10.8875	0.0000 
1792.926	7.4872	4.5264	-11.1292	0.0000 
1793.014	7.3553	4.5209	-11.3434	0.0000 
1793.025	7.2400	4.5099	-11.5082	0.0000 
1793.025	7.1301	4.4879	-11.6235	0.0000 
1793.025	6.9873	4.4824	-11.7444	0.0000 
1793.031	6.8060	4.4934	-11.8982	0.0000 
1793.046	6.6083	4.4879	-12.0465	0.0000 
1793.068	6.4270	4.4275	-12.1344	0.0000 
1793.091	6.2732	4.3121	-12.1399	0.0000 
1793.116	6.1523	4.1858	-12.1014	0.0000 
1793.124	6.0590	4.0869	-12.0410	0.0000 
1793.144	5.9656	4.0265	-11.9586	0.0000 
1793.164	5.8832	3.9935	-11.8817	0.0000 
1793.240	5.8173	3.9771	-11.8158	0.0000 
1793.251	5.7513	3.9386	-11.7444	0.0000 
1793.251	5.7074	3.8892	-11.6840	0.0000 
1793.251	5.6744	3.8232	-11.6235	0.0000 
1793.273	5.6689	3.7408	-11.5356	0.0000 
1793.284	5.6799	3.6530	-11.4038	0.0000 
1793.303	5.7129	3.5815	-11.2555	0.0000 
1793.323	5.7623	3.5211	-11.1127	0.0000 
1793.343	5.8337	3.4607	-10.9698	0.0000 
1793.363	5.9106	3.3893	-10.8160	0.0000 
1793.383	5.9930	3.2959	-10.6293	0.0000 
1793.475	6.0754	3.1750	-10.3986	0.0000 
1793.481	6.1853	3.0432	-10.1294	0.0000 
1793.481	6.3281	2.9059	-9.8438	0.0000 
1793.481	6.4984	2.7905	-9.5416	0.0000 
1793.487	6.6412	2.6917	-9.2175	0.0000 
1793.509	6.7401	2.6257	-8.8605	0.0000 
1793.531	6.8115	2.5873	-8.4814	0.0000 
1793.553	6.9104	2.5488	-8.0475	0.0000 
1793.562	7.0587	2.5104	-7.5861	0.0000 
1793.651	7.2455	2.4664	-7.1246	0.0000 
1793.658	7.4487	2.4060	-6.6907	0.0000 
1793.658	7.5916	2.3401	-6.2732	0.0000 
1793.658	7.6300	2.3071	-5.9161	0.0000 
1793.664	7.6575	2.2742	-5.5920	0.0000 
1793.684	7.7509	2.1808	-5.1855	0.0000 
1793.706	7.8882	2.0105	-4.7241	0.0000 
1793.726	8.0145	1.8567	-4.3176	0.0000 
1793.747	8.0750	1.7688	-4.0265	0.0000 
1793.826	8.0585	1.7578	-3.8123	0.0000 
1793.837	8.0365	1.7908	-3.6035	0.0000 
1793.837	8.0365	1.8073	-3.3673	0.0000 
1793.838	8.0310	1.8182	-3.1915	0.0000 
1793.844	8.0090	1.8457	-3.1421	0.0000 
1793.860	7.9211	1.9006	-3.2300	0.0000 
1793.880	7.8003	1.9501	-3.3234	0.0000 
1793.901	7.6959	1.9611	-3.3124	0.0000 
1793.923	7.6410	1.9556	-3.2135	0.0000 
1793.947	7.6410	1.9940	-3.0981	0.0000 
1793.970	7.6410	2.0929	-3.0322	0.0000 
1793.979	7.6190	2.2522	-3.0212	0.0000 
1794.060	7.5970	2.4225	-3.0212	0.0000 
1794.071	7.5970	2.5818	-2.9993	0.0000 
1794.072	7.6025	2.7191	-2.9993	0.0000 
1794.072	7.6025	2.8564	-3.0597	0.0000 
1794.079	7.5696	3.0048	-3.1915	0.0000 
1794.099	7.5476	3.1476	-3.3618	0.0000 
1794.119	7.5586	3.2684	-3.5541	0.0000 
1794.138	7.6135	3.3728	-3.7848	0.0000 
1794.158	7.7069	3.4662	-4.0540	0.0000 
1794.179	7.8168	3.5266	-4.3341	0.0000 
1794.203	7.9706	3.5760	-4.6198	0.0000 
1794.293	8.1519	3.6200	-4.8834	0.0000 
1794.299	8.3441	3.6530	-5.0867	0.0000 
1794.299	8.4979	3.6694	-5.2570	0.0000 
1794.299	8.6353	3.6530	-5.4327	0.0000 
1794.299	8.7616	3.6420	-5.6580	0.0000 
1794.326	8.8330	3.6035	-5.9436	0.0000 
1794.351	8.9209	3.5321	-6.2183	0.0000 
1794.359	9.0417	3.4497	-6.3831	0.0000 
1794.378	9.1956	3.3838	-6.4819	0.0000 
1794.398	9.3329	3.3124	-6.5588	0.0000 
1794.472	9.3549	3.2794	-6.7346	0.0000 
1794.483	9.3329	3.2959	-6.9873	0.0000 
1794.484	9.3164	3.2904	-7.2070	0.0000 
1794.484	9.2944	3.2520	-7.3663	0.0000 
1794.505	9.2944	3.1970	-7.4872	0.0000 
1794.524	9.2725	3.1476	-7.5201	0.0000 
1794.546	9.2120	3.1201	-7.4927	0.0000 
1794.557	9.1351	3.1256	-7.4652	0.0000 
1794.643	9.0417	3.1586	-7.4597	0.0000 
1794.649	8.8989	3.1805	-7.4377	0.0000 
1794.649	8.7286	3.1915	-7.3499	0.0000 
1794.649	8.5364	3.1586	-7.1741	0.0000 
1794.656	8.3221	3.1366	-6.9708	0.0000 
1794.676	8.1409	3.1641	-6.8005	0.0000 
1794.698	8.0200	3.2190	-6.6742	0.0000 
1794.721	7.9047	3.2794	-6.5588	0.0000 
1794.741	7.7893	3.3398	-6.4545	0.0000 
1794.762	7.6849	3.3783	-6.3062	0.0000 
1794.785	7.5970	3.3893	-6.0974	0.0000 
1794.795	7.5751	3.3838	-5.8282	0.0000 
1794.875	7.6190	3.3563	-5.4932	0.0000 
1794.882	7.7124	3.3124	-5.1306	0.0000 
1794.882	7.8333	3.2849	-4.7626	0.0000 
1794.882	7.9596	3.2794	-4.3890	0.0000 
1794.895	8.0859	3.3124	-4.0430	0.0000 
1794.915	8.2288	3.3618	-3.6914	0.0000 
1794.935	8.3771	3.4113	-3.3344	0.0000 
1794.955	8.5364	3.4497	-2.9553	0.0000 
1794.975	8.6847	3.4937	-2.5543	0.0000 
1795.049	8.8000	3.5046	-2.2137	0.0000 
1795.060	8.9539	3.4772	-1.9446	0.0000 
1795.061	9.0637	3.4607	-1.7303	0.0000 
1795.061	9.1736	3.3838	-1.4996	0.0000 
1795.081	9.2615	3.2190	-1.2030	0.0000 
1795.105	9.2340	2.9608	-0.8569	0.0000 
1795.113	9.1846	2.7576	-0.5383	0.0000 
1795.133	9.1187	2.6367	-0.2911	0.0000 
1795.153	9.0198	2.6202	-0.1648	0.0000 
1795.173	8.8879	2.6642	-0.1263	0.0000 
1795.193	8.7451	2.6971	-0.0494	0.0000 
1795.279	8.5858	2.7026	0.0769	0.0000 
1795.285	8.4320	2.7191	0.2032	0.0000 
1795.285	8.3002	2.7466	0.3406	0.0000 
1795.285	8.1683	2.7905	0.4614	0.0000 
1795.293	8.0420	2.8619	0.5164	0.0000 
1795.312	7.9156	2.9553	0.4834	0.0000 
1795.333	7.8003	3.0762	0.3625	0.0000 
1795.356	7.7069	3.2135	0.2197	0.0000 
1795.378	7.6740	3.3508	0.0604	0.0000 
1795.454	7.6575	3.4717	-0.1099	0.0000 
1795.465	7.6410	3.5815	-0.3351	0.0000 
1795.465	7.6410	3.6694	-0.5933	0.0000 
1795.465	7.7124	3.7244	-0.8954	0.0000 
1795.472	7.8003	3.7079	-1.2140	0.0000 
1795.491	7.9266	3.6914	-1.5656	0.0000 
1795.511	8.0695	3.7079	-1.9171	0.0000 
1795.531	8.2288	3.7354	-2.1973	0.0000 
1795.556	8.3606	3.7408	-2.4280	0.0000 
1795.573	8.4760	3.7024	-2.6862	0.0000 
1795.596	8.6133	3.6530	-3.0157	0.0000 
1795.686	8.7177	3.5980	-3.4113	0.0000 
1795.692	8.8824	3.5211	-3.7244	0.0000 
1795.692	9.1022	3.4058	-3.8287	0.0000 
1795.692	9.2010	3.2190	-3.8397	0.0000 
1795.692	9.1461	3.1311	-3.9716	0.0000 
1795.720	9.0802	3.1860	-4.3176	0.0000 
1795.729	9.0637	3.2629	-4.7021	0.0000 
1795.751	9.0582	3.3289	-5.0372	0.0000 
1795.770	9.0363	3.3783	-5.2130	0.0000 
1795.790	8.9429	3.4167	-5.2240	0.0000 
1795.860	8.8110	3.4882	-5.1691	0.0000 
1795.871	8.6957	3.5925	-5.1141	0.0000 
1795.872	8.6462	3.6749	-5.0647	0.0000 
1795.878	8.5748	3.7244	-5.0427	0.0000 
1795.892	8.4155	3.7573	-5.0262	0.0000 
1795.914	8.2288	3.7793	-4.9658	0.0000 
1795.938	8.0695	3.7793	-4.8010	0.0000 
1795.960	7.9596	3.7793	-4.5648	0.0000 
1795.969	7.8827	3.7903	-4.3121	0.0000 
1795.989	7.8113	3.8177	-4.0814	0.0000 
1796.009	7.6794	3.8617	-3.8562	0.0000 
1796.096	7.5201	3.9441	-3.6420	0.0000 
1796.102	7.4377	4.0704	-3.3893	0.0000 
1796.102	7.4542	4.1583	-3.0212	0.0000 
1796.102	7.5146	4.1748	-2.5873	0.0000 
1796.108	7.6025	4.1968	-2.2302	0.0000 
1796.128	7.6520	4.2352	-1.9391	0.0000 
1796.151	7.6740	4.2792	-1.7084	0.0000 
1796.172	7.7509	4.3011	-1.4886	0.0000 
1796.193	7.8387	4.3011	-1.2415	0.0000 
1796.271	7.9102	4.3066	-1.0437	0.0000 
1796.282	7.9541	4.3286	-0.9119	0.0000 
1796.282	8.0475	4.3011	-0.7635	0.0000 
1796.282	8.1958	4.2188	-0.5328	0.0000 
1796.288	8.3716	4.0485	-0.1703	0.0000 
1796.307	8.4650	3.8452	0.2307	0.0000 
1796.327	8.4375	3.7408	0.5054	0.0000 
1796.347	8.3441	3.7518	0.6262	0.0000 
1796.370	8.2947	3.7958	0.6921	0.0000 
1796.392	8.2562	3.7903	0.7526	0.0000 
1796.414	8.2013	3.7408	0.8075	0.0000 
1796.437	8.0804	3.7244	0.8405	0.0000 
1796.511	7.9047	3.7354	0.8954	0.0000 
1796.522	7.7124	3.7683	0.9943	0.0000 
1796.522	7.5696	3.8397	1.0767	0.0000 
1796.522	7.4982	3.9331	1.1096	0.0000 
1796.528	7.4213	4.0375	1.0876	0.0000 
1796.546	7.3224	4.1748	1.0217	0.0000 
1796.565	7.2290	4.3286	0.9723	0.0000 
1796.587	7.1851	4.4824	0.9888	0.0000 
1796.608	7.2125	4.6033	1.0107	0.0000 
1796.685	7.2675	4.7076	0.9723	0.0000 
1796.696	7.3334	4.8230	0.8624	0.0000 
1796.696	7.3883	4.9219	0.7031	0.0000 
1796.696	7.4377	4.9988	0.5219	0.0000 
1796.705	7.5037	5.0757	0.3241	0.0000 
1796.724	7.6190	5.1581	0.1483	0.0000 
1796.745	7.7673	5.2679	0.0000	0.0000 
1796.765	7.9047	5.3888	-0.1373	0.0000 
1796.785	8.0310	5.4547	-0.3131	0.0000 
1796.804	8.1958	5.4492	-0.5328	0.0000 
1796.828	8.3112	5.3558	-0.7635	0.0000 
1796.918	8.4155	5.1965	-0.9338	0.0000 
1796.924	8.5858	5.0482	-0.9723	0.0000 
1796.924	8.7671	4.9493	-0.9229	0.0000 
1796.924	8.7671	4.8340	-0.8844	0.0000 
1796.924	8.6188	4.7900	-1.0272	0.0000 
1796.952	8.4430	4.8450	-1.4008	0.0000 
1796.973	8.3167	4.9054	-1.7908	0.0000 
1796.986	8.2837	4.9219	-2.0490	0.0000 
1797.003	8.2727	4.8889	-2.1368	0.0000 
1797.023	8.1958	4.8175	-2.0984	0.0000 
1797.093	8.0475	4.7845	-2.0654	0.0000 
1797.103	7.9431	4.8120	-2.1039	0.0000 
1797.104	7.8772	4.8285	-2.1588	0.0000 
1797.110	7.8003	4.8010	-2.2137	0.0000 
1797.126	7.6959	4.7461	-2.2192	0.0000 
1797.147	7.5751	4.6527	-2.0929	0.0000 
1797.170	7.4652	4.5593	-1.8787	0.0000 
1797.191	7.4377	4.4879	-1.6589	0.0000 
1797.213	7.4542	4.4495	-1.4722	0.0000 
1797.223	7.4652	4.4495	-1.3403	0.0000 
1797.242	7.4487	4.4165	-1.1591	0.0000 
1797.325	7.4103	4.3561	-0.9119	0.0000 
1797.332	7.3993	4.3561	-0.6812	0.0000 
1797.332	7.4872	4.3671	-0.4175	0.0000 
1797.332	7.6080	4.3835	-0.1373	0.0000 
1797.342	7.7234	4.4165	0.1099	0.0000 
1797.362	7.8113	4.4604	0.2966	0.0000 
1797.382	7.9047	4.4824	0.4669	0.0000 
1797.402	8.0365	4.4550	0.7196	0.0000 
1797.423	8.2892	4.3726	1.0547	0.0000 
1797.499	8.6243	4.2407	1.4722	0.0000 
1797.510	8.9374	4.0704	1.8567	0.0000 
1797.510	9.1681	3.9606	2.1149	0.0000 
1797.510	9.2834	4.0045	2.1808	0.0000 
1797.527	9.2725	4.0979	2.1643	0.0000 
1797.545	9.2285	4.1034	2.2632	0.0000 
1797.560	9.2065	4.0320	2.5543	0.0000 
1797.581	9.1846	3.9496	2.9059	0.0000 
1797.604	9.1516	3.8782	3.1860	0.0000 
1797.627	9.0857	3.8013	3.3783	0.0000 
1797.647	8.9594	3.7244	3.4882	0.0000 
1797.727	8.7891	3.6475	3.5596	0.0000 
1797.738	8.5858	3.5706	3.5980	0.0000 
1797.738	8.3936	3.5266	3.5980	0.0000 
1797.739	8.2178	3.5211	3.5651	0.0000 
1797.745	8.0695	3.5706	3.5101	0.0000 
1797.760	7.9431	3.6475	3.4442	0.0000 
1797.781	7.8278	3.7463	3.3563	0.0000 
1797.804	7.7179	3.8562	3.2629	0.0000 
1797.827	7.6080	3.9441	3.2025	0.0000 
1797.903	7.5092	4.0155	3.1586	0.0000 
1797.914	7.4323	4.0814	3.0762	0.0000 
1797.914	7.3553	4.1254	2.9279	0.0000 
1797.914	7.3059	4.1528	2.7026	0.0000 
1797.920	7.3444	4.1693	2.4060	0.0000 
1797.938	7.4432	4.1858	2.0819	0.0000 
1797.960	7.5861	4.1913	1.7798	0.0000 
1797.982	7.7179	4.1748	1.4941	0.0000 
1798.003	7.8552	4.0759	1.2305	0.0000 
1798.027	8.0695	3.9276	0.9338	0.0000 
1798.037	8.2452	3.7738	0.5054	0.0000 
1798.057	8.3606	3.6035	0.0439	0.0000 
1798.136	8.4760	3.4332	-0.2472	0.0000 
1798.143	8.5803	3.2080	-0.3131	0.0000 
1798.143	8.6023	2.9333	-0.2692	0.0000 
1798.143	8.5638	2.7631	-0.3131	0.0000 
1798.158	8.5144	2.7905	-0.5273	0.0000 
1798.176	8.5144	2.9114	-0.7965	0.0000 
1798.196	8.5529	3.0542	-1.0162	0.0000 
1798.217	8.4924	3.1750	-1.1426	0.0000 
1798.236	8.3386	3.3069	-1.2030	0.0000 
1798.312	8.1738	3.4442	-1.2140	0.0000 
1798.323	8.0310	3.5431	-1.2030	0.0000 
1798.323	7.9266	3.6035	-1.1865	0.0000 
1798.323	7.7893	3.6200	-1.1755	0.0000 
1798.344	7.5916	3.6200	-1.1646	0.0000 
1798.356	7.3828	3.6255	-1.1041	0.0000 
1798.375	7.2345	3.6035	-0.9778	0.0000 
1798.395	7.1246	3.5815	-0.8679	0.0000 
1798.415	7.0148	3.5815	-0.8295	0.0000 
1798.435	6.9214	3.5870	-0.8185	0.0000 
1798.455	6.8445	3.5815	-0.7745	0.0000 
1798.543	6.8005	3.5760	-0.6976	0.0000 
1798.549	6.8225	3.5706	-0.6042	0.0000 
1798.549	6.8719	3.5815	-0.5164	0.0000 
1798.549	6.9434	3.5870	-0.4175	0.0000 
1798.555	6.9928	3.5980	-0.3296	0.0000 
1798.575	6.9983	3.6530	-0.2582	0.0000 
1798.599	7.0203	3.7244	-0.1373	0.0000 
1798.622	7.1301	3.7518	0.1703	0.0000 
1798.644	7.3444	3.7299	0.6097	0.0000 
1798.719	7.5146	3.7079	0.9888	0.0000 
1798.730	7.6794	3.7408	1.2195	0.0000 
1798.730	7.8113	3.9056	1.3019	0.0000 
1798.730	7.8223	4.1199	1.2579	0.0000 
1798.736	7.7728	4.3176	1.1646	0.0000 
1798.754	7.7234	4.4220	1.2305	0.0000 
1798.774	7.7124	4.3945	1.5161	0.0000 
1798.795	7.6959	4.3396	1.7633	0.0000 
1798.816	7.6300	4.2957	1.7798	0.0000 
1798.840	7.4927	4.2737	1.6205	0.0000 
1798.861	7.3279	4.2462	1.4282	0.0000 
1798.880	7.1631	4.1913	1.3239	0.0000 
1798.952	7.0258	4.1309	1.2964	0.0000 
1798.962	6.9159	4.0979	1.2689	0.0000 
1798.963	6.7786	4.1034	1.1865	0.0000 
1798.963	6.6193	4.1528	1.0272	0.0000 
1798.974	6.5259	4.2407	0.8569	0.0000 
1798.993	6.4764	4.3176	0.7196	0.0000 
1799.013	6.4490	4.4055	0.5658	0.0000 
1799.032	6.3721	4.5044	0.3571	0.0000 
1799.052	6.2732	4.6143	0.1208	0.0000 
1799.128	6.1908	4.7076	-0.1373	0.0000 
1799.140	6.1633	4.7736	-0.4230	0.0000 
1799.140	6.1908	4.8230	-0.7635	0.0000 
1799.140	6.2622	4.8834	-1.1536	0.0000 
1799.164	6.3831	4.9603	-1.5436	0.0000 
1799.172	6.5588	5.0317	-1.8567	0.0000 
1799.191	6.7676	5.1196	-2.0984	0.0000 
1799.211	6.9708	5.2240	-2.2577	0.0000 
1799.231	7.1356	5.2570	-2.3895	0.0000 
1799.304	7.3663	5.2350	-2.5378	0.0000 
1799.315	7.5421	5.1691	-2.7191	0.0000 
1799.315	7.6685	5.0702	-2.9004	0.0000 
1799.316	7.7728	4.9933	-3.0212	0.0000 
1799.338	7.8662	4.9274	-3.0432	0.0000 
1799.358	7.8223	4.8505	-3.0652	0.0000 
1799.380	7.7124	4.8395	-3.2245	0.0000 
1799.391	7.6959	4.8889	-3.4662	0.0000 
1799.410	7.7344	4.9054	-3.6475	0.0000 
1799.430	7.7673	4.8834	-3.7518	0.0000 
1799.450	7.7673	4.8615	-3.7628	0.0000 
1799.537	7.6904	4.8669	-3.7299	0.0000 
1799.543	7.5641	4.9219	-3.7134	0.0000 
1799.543	7.4762	4.9988	-3.7354	0.0000 
1799.543	7.3993	5.0592	-3.7848	0.0000 
1799.549	7.3059	5.0812	-3.8562	0.0000 
1799.570	7.1851	5.0592	-3.8617	0.0000 
1799.591	7.0752	4.9878	-3.7408	0.0000 
1799.614	7.0148	4.8999	-3.5266	0.0000 
1799.637	7.0367	4.8340	-3.2849	0.0000 
1799.658	7.0807	4.7681	-3.0597	0.0000 
1799.670	7.1027	4.7076	-2.8564	0.0000 
1799.689	7.1136	4.6692	-2.6422	0.0000 
1799.770	7.1576	4.6252	-2.3236	0.0000 
1799.776	7.2565	4.5593	-1.9336	0.0000 
1799.776	7.4103	4.4989	-1.5601	0.0000 
1799.776	7.5586	4.4659	-1.2689	0.0000 
1799.788	7.6794	4.4769	-1.0767	0.0000 
1799.808	7.8058	4.5154	-0.8789	0.0000 
1799.828	8.0035	4.5044	-0.5438	0.0000 
1799.847	8.3167	4.4440	-0.0110	0.0000 
1799.869	8.6353	4.3671	0.5768	0.0000 
1799.943	8.9044	4.3890	1.0382	0.0000 
1799.955	9.0912	4.6472	1.2744	0.0000 
1799.955	9.0802	4.9878	1.3293	0.0000 
1799.956	8.9923	5.2515	1.3293	0.0000 
1799.977	8.8989	5.3723	1.5216	0.0000 
1799.997	8.8879	5.3448	1.9830	0.0000 
1800.008	8.9209	5.2515	2.4994	0.0000 
1800.027	8.9264	5.1636	2.7905	0.0000 
1800.047	8.8824	5.1306	2.9114	0.0000 
1800.067	8.7671	5.1251	2.9938	0.0000 
1800.087	8.6243	5.1086	3.1311	0.0000 
1800.175	8.4979	5.1086	3.2794	0.0000 
1800.181	8.4100	5.1251	3.3728	0.0000 
1800.181	8.3276	5.2020	3.3728	0.0000 
1800.181	8.2178	5.3339	3.2959	0.0000 
1800.188	8.1024	5.5042	3.1476	0.0000 
1800.209	7.9761	5.6799	2.9663	0.0000 
1800.229	7.8552	5.8228	2.7960	0.0000 
1800.253	7.7618	5.9546	2.6532	0.0000 
1800.274	7.6794	6.0535	2.5269	0.0000 
1800.349	7.6080	6.1194	2.3785	0.0000 
1800.362	7.5696	6.1469	2.1973	0.0000 
1800.363	7.5641	6.1469	1.9995	0.0000 
1800.363	7.5861	6.1304	1.7743	0.0000 
1800.369	7.6190	6.1139	1.5161	0.0000 
1800.396	7.6794	6.0919	1.2415	0.0000 
1800.414	7.7234	6.0480	0.9778	0.0000 
1800.436	7.7893	6.0150	0.7526	0.0000 
1800.445	7.8662	5.9656	0.6042	0.0000 
1800.465	7.9596	5.8282	0.4395	0.0000 
1800.484	8.0530	5.6635	0.1978	0.0000 
1800.504	8.0420	5.5042	-0.1099	0.0000 
1800.578	8.0365	5.3668	-0.3735	0.0000 
1800.588	8.0365	5.2570	-0.5219	0.0000 
1800.588	8.0914	5.1746	-0.5328	0.0000 
1800.588	8.0804	5.0702	-0.5438	0.0000 
1800.611	7.9706	5.0317	-0.7141	0.0000 
1800.632	7.8607	5.0757	-1.0052	0.0000 
1800.653	7.8113	5.1141	-1.2250	0.0000 
1800.663	7.8113	5.0922	-1.3074	0.0000 
1800.751	7.8278	5.0702	-1.3293	0.0000 
1800.762	7.7783	5.1031	-1.3733	0.0000 
1800.763	7.6685	5.2130	-1.4777	0.0000 
1800.763	7.5586	5.3503	-1.6095	0.0000 
1800.769	7.4597	5.4547	-1.7468	0.0000 
1800.785	7.3663	5.4877	-1.8127	0.0000 
1800.805	7.2620	5.4602	-1.7963	0.0000 
1800.829	7.1301	5.3943	-1.7084	0.0000 
1800.853	7.0038	5.3503	-1.6040	0.0000 
1800.872	6.8994	5.3229	-1.5106	0.0000 
1800.883	6.7786	5.3009	-1.4227	0.0000 
1800.902	6.6632	5.2954	-1.3403	0.0000 
1800.985	6.6357	5.2954	-1.1646	0.0000 
1800.991	6.7072	5.2570	-0.8405	0.0000 
1800.991	6.8610	5.1471	-0.4449	0.0000 
1800.991	6.9873	5.0098	-0.1099	0.0000 
1801.001	7.0587	4.9054	0.1044	0.0000 
1801.021	7.1411	4.8395	0.2856	0.0000 
1801.041	7.3279	4.7736	0.5219	0.0000 
1801.063	7.6959	4.7131	0.9064	0.0000 
1801.086	8.0530	4.6857	1.4172	0.0000 
1801.161	8.3386	4.6802	1.8732	0.0000 
1801.172	8.3990	4.8669	2.0270	0.0000 
1801.172	8.2947	5.1691	1.9885	0.0000 
1801.172	8.2123	5.3558	2.0984	0.0000 
1801.180	8.2233	5.3339	2.4884	0.0000 
1801.202	8.2617	5.1965	2.9608	0.0000 
1801.220	8.2507	5.0592	3.3344	0.0000 
1801.240	8.1738	5.0043	3.4827	0.0000 
1801.260	8.0200	5.0098	3.4772	0.0000 
1801.281	7.8223	5.0317	3.4387	0.0000 
1801.303	7.6794	5.0537	3.4387	0.0000 
1801.392	7.5476	5.0812	3.4607	0.0000 
1801.398	7.4268	5.1471	3.4662	0.0000 
1801.398	7.3059	5.2734	3.4332	0.0000 
1801.398	7.1906	5.4492	3.3453	0.0000 
1801.404	7.0807	5.6030	3.2300	0.0000 
1801.426	6.9543	5.7349	3.0981	0.0000 
1801.447	6.7896	5.8502	2.9388	0.0000 
1801.460	6.6248	5.9436	2.7686	0.0000 
1801.479	6.4874	6.0095	2.5653	0.0000 
1801.566	6.3776	6.0480	2.3016	0.0000 
1801.572	6.3391	6.0590	2.0050	0.0000 
1801.572	6.3611	6.0205	1.7084	0.0000 
1801.572	6.4270	5.9601	1.4172	0.0000 
1801.579	6.5479	5.8612	1.1316	0.0000 
1801.601	6.6687	5.7458	0.8679	0.0000 
1801.621	6.7731	5.5646	0.6757	0.0000 
1801.646	6.9434	5.3339	0.5219	0.0000 
1801.664	7.1301	5.1306	0.3076	0.0000 
1801.688	7.2455	4.9823	0.0494	0.0000 
1801.708	7.3499	4.8779	-0.1154	0.0000 
1801.721	7.4872	4.7461	-0.0879	0.0000 
1801.802	7.5586	4.5868	-0.0220	0.0000 
1801.813	7.5970	4.5154	-0.1044	0.0000 
1801.814	7.6080	4.5758	-0.3735	0.0000 
1801.814	7.6190	4.6692	-0.6537	0.0000 
1801.820	7.6190	4.7736	-0.8569	0.0000 
1801.837	7.6025	4.8944	-0.9833	0.0000 
1801.857	7.5696	5.0317	-1.0657	0.0000 
1801.879	7.5586	5.1691	-1.1646	0.0000 
1801.901	7.5201	5.2844	-1.3074	0.0000 
1801.975	7.4432	5.3558	-1.4557	0.0000 
1801.986	7.3553	5.3778	-1.5656	0.0000 
1801.986	7.2565	5.3558	-1.6095	0.0000 
1801.986	7.1301	5.3009	-1.5765	0.0000 
1801.997	6.9983	5.2515	-1.5326	0.0000 
1802.016	6.8555	5.2405	-1.5216	0.0000 
1802.036	6.7401	5.2515	-1.5326	0.0000 
1802.056	6.7017	5.2515	-1.4832	0.0000 
1802.076	6.7017	5.2240	-1.3513	0.0000 
1802.103	6.7621	5.1855	-1.1646	0.0000 
1802.119	6.8555	5.1361	-0.9393	0.0000 
1802.212	6.9598	5.0977	-0.7306	0.0000 
1802.219	7.0532	5.0757	-0.5768	0.0000 
1802.220	7.0972	5.1031	-0.4614	0.0000 
1802.220	7.1466	5.1526	-0.3296	0.0000 
1802.220	7.2949	5.2020	-0.0494	0.0000 
1802.235	7.4487	5.2240	0.3186	0.0000 
1802.254	7.5696	5.2405	0.6262	0.0000 
1802.274	7.5256	5.3064	0.7745	0.0000 
1802.294	7.3224	5.3668	0.8020	0.0000 
1802.314	7.1466	5.3284	0.9283	0.0000 
1802.388	7.0587	5.1910	1.2579	0.0000 
1802.398	7.0093	5.0043	1.6370	0.0000 
1802.399	6.9159	4.8120	1.8567	0.0000 
1802.399	6.7841	4.7021	1.8732	0.0000 
1802.421	6.6302	4.6747	1.7963	0.0000 
1802.443	6.5314	4.6417	1.8018	0.0000 
1802.454	6.4929	4.5648	1.9226	0.0000 
1802.482	6.5039	4.4934	1.9995	0.0000 
1802.503	6.4655	4.4385	1.9720	0.0000 
1802.519	6.3885	4.4110	1.8677	0.0000 
1802.537	6.3226	4.4110	1.7303	0.0000 
1802.557	6.2842	4.4275	1.5820	0.0000 
1802.618	6.2567	4.4604	1.4282	0.0000 
1802.627	6.2018	4.5319	1.2469	0.0000 
1802.627	6.1359	4.6252	1.0602	0.0000 
1802.633	6.1469	4.7241	0.8624	0.0000 
1802.652	6.2402	4.7791	0.6592	0.0000 
1802.673	6.3776	4.7406	0.4285	0.0000 
1802.694	6.5094	4.6912	0.1538	0.0000 
1802.716	6.6138	4.6802	-0.0934	0.0000 
1802.796	6.7181	4.6582	-0.2692	0.0000 
1802.808	6.8170	4.5978	-0.3900	0.0000 
1802.808	6.9598	4.4879	-0.4669	0.0000 
1802.808	7.0917	4.3781	-0.5658	0.0000 
1802.815	7.1851	4.2902	-0.7251	0.0000 
1802.832	7.2784	4.2352	-0.8844	0.0000 
1802.852	7.3553	4.1803	-1.0052	0.0000 
1802.872	7.3114	4.0759	-1.1096	0.0000 
1802.895	7.1301	3.9606	-1.2744	0.0000 
1802.969	6.9489	3.9331	-1.5546	0.0000 
1802.982	6.8555	3.9276	-1.7908	0.0000 
1802.982	6.8500	3.9331	-1.8842	0.0000 
1802.982	6.8884	3.9551	-1.8292	0.0000 
1802.991	6.9214	3.9990	-1.7194	0.0000 
1803.011	6.8829	4.0759	-1.6425	0.0000 
1803.031	6.7841	4.1913	-1.6315	0.0000 
1803.051	6.6687	4.3011	-1.6534	0.0000 
1803.070	6.5643	4.3671	-1.6754	0.0000 
1803.091	6.4764	4.3890	-1.6754	0.0000 
1803.112	6.3666	4.3396	-1.6095	0.0000 
1803.206	6.2567	4.2462	-1.4777	0.0000 
1803.212	6.2018	4.1364	-1.2689	0.0000 
1803.212	6.2018	4.0320	-1.0492	0.0000 
1803.212	6.2402	3.9716	-0.8514	0.0000 
1803.212	6.2952	3.9551	-0.6427	0.0000 
1803.237	6.3885	3.9716	-0.3790	0.0000 
1803.259	6.5259	3.9825	-0.0549	0.0000 
1803.270	6.6852	3.9771	0.3076	0.0000 
1803.289	6.8665	3.9716	0.6207	0.0000 
1803.379	6.9983	3.9990	0.7965	0.0000 
1803.386	7.0807	4.0759	0.8624	0.0000 
1803.386	7.1082	4.1803	0.9613	0.0000 
1803.386	7.2070	4.2517	1.2140	0.0000 
1803.392	7.3993	4.2847	1.6260	0.0000 
1803.413	7.6904	4.3341	2.1478	0.0000 
1803.436	7.9651	4.4110	2.6587	0.0000 
1803.455	8.1573	4.5593	3.0103	0.0000 
1803.478	8.0969	4.8230	3.1311	0.0000 
1803.488	7.8827	5.0812	3.0981	0.0000 
1803.508	7.7124	5.1965	3.1531	0.0000 
1803.528	7.6410	5.1416	3.4497	0.0000 
1803.613	7.6794	5.0153	3.8397	0.0000 
1803.619	7.6959	4.8615	4.1364	0.0000 
1803.619	7.6685	4.7131	4.3011	0.0000 
1803.619	7.5531	4.6252	4.3451	0.0000 
1803.627	7.4762	4.5154	4.3890	0.0000 
1803.647	7.4597	4.2957	4.4989	0.0000 
1803.667	7.4542	4.0320	4.5923	0.0000 
1803.688	7.4048	3.8507	4.5758	0.0000 
1803.711	7.3224	3.7793	4.4659	0.0000 
1803.787	7.2565	3.7738	4.3176	0.0000 
1803.798	7.2125	3.7518	4.1968	0.0000 
1803.799	7.1796	3.7189	4.0759	0.0000 
1803.799	7.1411	3.7189	3.9441	0.0000 
1803.806	7.0477	3.7408	3.8013	0.0000 
1803.826	6.9489	3.7848	3.6255	0.0000 
1803.845	6.8829	3.8232	3.4332	0.0000 
1803.868	6.8774	3.8177	3.2355	0.0000 
1803.886	6.9159	3.7573	3.0103	0.0000 
1803.908	6.9873	3.7134	2.7246	0.0000 
1803.930	7.0807	3.7134	2.3950	0.0000 
1804.026	7.1741	3.7079	2.0929	0.0000 
1804.032	7.2675	3.6530	1.8237	0.0000 
1804.032	7.4377	3.5596	1.5601	0.0000 
1804.032	7.5806	3.4442	1.2415	0.0000 
1804.032	7.6849	3.3344	0.8954	0.0000 
1804.044	7.7673	3.2739	0.5768	0.0000 
1804.064	7.8113	3.2080	0.3571	0.0000 
1804.084	7.7618	3.0542	0.2252	0.0000 
1804.104	7.6959	2.9443	0.0220	0.0000 
1804.124	7.6959	2.9608	-0.2582	0.0000 
1804.202	7.7234	3.0542	-0.5219	0.0000 
1804.213	7.7783	3.1696	-0.6757	0.0000 
1804.213	7.7838	3.2849	-0.7581	0.0000 
1804.213	7.6849	3.4277	-0.8459	0.0000 
1804.224	7.5696	3.5925	-0.9558	0.0000 
1804.244	7.4927	3.7354	-1.0327	0.0000 
1804.264	7.4048	3.8177	-1.0876	0.0000 
1804.284	7.3114	3.8287	-1.1261	0.0000 
1804.303	7.1851	3.7958	-1.1206	0.0000 
1804.324	7.0532	3.7354	-1.0602	0.0000 
1804.346	6.9598	3.6639	-0.9503	0.0000 
1804.435	6.9159	3.5980	-0.8569	0.0000 
1804.441	6.8665	3.5431	-0.7910	0.0000 
1804.441	6.7731	3.4991	-0.7196	0.0000 
1804.441	6.7181	3.4607	-0.5933	0.0000 
1804.447	6.7126	3.4277	-0.3845	0.0000 
1804.467	6.7566	3.3948	-0.1263	0.0000 
1804.489	6.8170	3.3673	0.1263	0.0000 
1804.513	6.8445	3.3783	0.3461	0.0000 
1804.523	6.8719	3.4167	0.5493	0.0000 
1804.609	6.8939	3.4442	0.7910	0.0000 
1804.621	6.9049	3.4442	1.0822	0.0000 
1804.621	6.9873	3.4222	1.4722	0.0000 
1804.621	7.1466	3.4058	1.9281	0.0000 
1804.627	7.2839	3.3893	2.3676	0.0000 
1804.642	7.4048	3.4167	2.6862	0.0000 
1804.663	7.3883	3.5431	2.7850	0.0000 
1804.687	7.2510	3.6969	2.7411	0.0000 
1804.709	7.1301	3.7793	2.7576	0.0000 
1804.730	7.1027	3.7518	3.0103	0.0000 
1804.742	7.1246	3.6420	3.3344	0.0000 
1804.761	7.1136	3.5596	3.4882	0.0000 
1804.846	7.0148	3.5266	3.4387	0.0000 
1804.853	6.8665	3.5211	3.3124	0.0000 
1804.853	6.7456	3.4991	3.2080	0.0000 
1804.853	6.6852	3.4442	3.1696	0.0000 
1804.860	6.6632	3.3783	3.1531	0.0000 
1804.880	6.6412	3.3563	3.1256	0.0000 
1804.902	6.6193	3.3838	3.0542	0.0000 
1804.924	6.6302	3.4552	2.9388	0.0000 
1804.945	6.6632	3.5321	2.8125	0.0000 
1805.020	6.6797	3.6090	2.6917	0.0000 
1805.031	6.6797	3.6914	2.5708	0.0000 
1805.032	6.6467	3.7463	2.4939	0.0000 
1805.032	6.5808	3.7958	2.4005	0.0000 
1805.039	6.5094	3.8782	2.2467	0.0000 
1805.059	6.4600	3.9331	2.0325	0.0000 
1805.079	6.4270	3.9056	1.8182	0.0000 
1805.099	6.4325	3.8342	1.5601	0.0000 
1805.119	6.5039	3.7738	1.2689	0.0000 
1805.141	6.6302	3.7134	1.0107	0.0000 
1805.163	6.7291	3.6200	0.7910	0.0000 
1805.255	6.8500	3.4717	0.6097	0.0000 
1805.261	6.9543	3.3398	0.3900	0.0000 
1805.261	7.0422	3.2300	0.1428	0.0000 
1805.261	7.1686	3.1586	-0.0385	0.0000 
1805.261	7.2949	3.1256	-0.0989	0.0000 
1805.287	7.2565	3.0597	-0.1373	0.0000 
1805.297	7.0697	3.0157	-0.3076	0.0000 
1805.318	6.9214	3.0542	-0.6262	0.0000 
1805.337	6.8610	3.1091	-0.9503	0.0000 
1805.357	6.8610	3.1421	-1.1755	0.0000 
1805.428	6.8280	3.1805	-1.2689	0.0000 
1805.440	6.7126	3.2465	-1.2744	0.0000 
1805.441	6.5533	3.3508	-1.2415	0.0000 
1805.447	6.4215	3.4882	-1.2305	0.0000 
1805.461	6.3336	3.6255	-1.2030	0.0000 
1805.483	6.2512	3.7683	-1.1646	0.0000 
1805.504	6.1359	3.8672	-1.0327	0.0000 
1805.518	5.9766	3.9661	-0.8459	0.0000 
1805.536	5.8118	4.0979	-0.6647	0.0000 
1805.556	5.6799	4.2572	-0.5438	0.0000 
1805.576	5.5756	4.4275	-0.4834	0.0000 
1805.651	5.4987	4.6088	-0.4614	0.0000 
1805.664	5.4657	4.7736	-0.3680	0.0000 
1805.664	5.4712	4.8669	-0.1483	0.0000 
1805.664	5.5042	4.9438	0.1208	0.0000 
1805.685	5.5865	5.0098	0.4230	0.0000 
1805.706	5.7074	5.0537	0.7086	0.0000 
1805.716	5.8118	5.0757	0.9229	0.0000 
1805.736	5.8777	5.1031	1.0767	0.0000 
1805.755	5.9216	5.1306	1.2360	0.0000 
1805.828	6.0480	5.1251	1.4996	0.0000 
1805.839	6.3721	5.0812	1.9281	0.0000 
1805.839	6.7181	5.0317	2.3730	0.0000 
1805.845	7.0532	5.0427	2.6971	0.0000 
1805.861	7.2620	5.1361	2.8510	0.0000 
1805.884	7.2894	5.2515	2.8839	0.0000 
1805.895	7.2949	5.3229	2.9279	0.0000 
1805.915	7.3059	5.2789	3.1366	0.0000 
1805.935	7.3059	5.1636	3.4167	0.0000 
1805.954	7.2455	5.0592	3.5925	0.0000 
1805.974	7.1301	5.0043	3.6365	0.0000 
1806.059	6.9928	4.9823	3.6035	0.0000 
1806.065	6.8719	4.9438	3.5760	0.0000 
1806.065	6.7786	4.8779	3.5980	0.0000 
1806.065	6.7072	4.7955	3.6584	0.0000 
1806.074	6.6632	4.7241	3.7134	0.0000 
1806.094	6.6248	4.6637	3.7463	0.0000 
1806.113	6.5918	4.6472	3.7408	0.0000 
1806.141	6.5973	4.6582	3.6804	0.0000 
1806.158	6.6302	4.6472	3.6530	0.0000 
1806.231	6.6522	4.6143	3.7079	0.0000 
1806.242	6.6577	4.5923	3.7903	0.0000 
1806.242	6.6632	4.6088	3.7903	0.0000 
1806.242	6.6797	4.6472	3.6639	0.0000 
1806.253	6.6962	4.6692	3.4497	0.0000 
1806.272	6.7456	4.6307	3.1970	0.0000 
1806.292	6.8390	4.5648	2.9224	0.0000 
1806.313	6.9434	4.5099	2.6367	0.0000 
1806.333	7.0203	4.4385	2.3676	0.0000 
1806.352	7.0642	4.2957	2.1808	0.0000 
1806.374	7.1246	4.1638	2.0435	0.0000 
1806.466	7.2125	4.0869	1.9116	0.0000 
1806.472	7.3883	4.0759	1.8677	0.0000 
1806.472	7.4377	4.0320	1.8732	0.0000 
1806.472	7.2729	3.9716	1.8182	0.0000 
1806.472	7.1027	4.0045	1.5656	0.0000 
1806.498	7.0093	4.0594	1.2524	0.0000 
1806.521	7.0367	4.0594	1.0327	0.0000 
1806.532	7.0972	4.0375	0.9668	0.0000 
1806.551	7.0972	4.0375	1.0382	0.0000 
1806.570	7.0422	4.0869	1.1481	0.0000 
1806.642	6.9928	4.1968	1.2360	0.0000 
1806.653	6.9873	4.3286	1.2634	0.0000 
1806.653	6.9763	4.4165	1.2305	0.0000 
1806.659	6.8829	4.4659	1.1755	0.0000 
1806.676	6.7456	4.4824	1.1536	0.0000 
1806.697	6.5863	4.4769	1.2250	0.0000 
1806.719	6.4764	4.4440	1.3678	0.0000 
1806.739	6.4435	4.3835	1.5601	0.0000 
1806.751	6.4325	4.3506	1.6809	0.0000 
1806.769	6.3885	4.3506	1.7139	0.0000 
1806.789	6.3281	4.3561	1.8127	0.0000 
1806.872	6.3062	4.3286	2.0874	0.0000 
1806.879	6.3611	4.2737	2.4719	0.0000 
1806.879	6.4435	4.2188	2.8674	0.0000 
1806.879	6.5149	4.1968	3.1476	0.0000 
1806.888	6.5533	4.2188	3.2849	0.0000 
1806.908	6.5698	4.2352	3.3453	0.0000 
1806.928	6.6907	4.1858	3.4552	0.0000 
1806.949	6.8500	4.0979	3.6365	0.0000 
1806.971	7.0367	3.9716	3.8177	0.0000 
1807.046	7.2180	3.8727	3.9496	0.0000 
1807.056	7.2510	3.8123	4.0100	0.0000 
1807.057	7.2070	3.7408	4.0155	0.0000 
1807.057	7.1796	3.6200	4.1913	0.0000 
1807.068	7.2784	3.4332	4.5923	0.0000 
1807.088	7.3608	3.3234	4.9493	0.0000 
1807.108	7.3499	3.3289	5.0812	0.0000 
1807.128	7.2510	3.4222	5.0208	0.0000 
1807.148	7.1466	3.5266	4.9603	0.0000 
1807.168	7.0862	3.5541	5.0262	0.0000 
1807.188	7.0477	3.5321	5.1471	0.0000 
1807.278	7.0203	3.4991	5.2240	0.0000 
1807.285	6.9873	3.4937	5.2570	0.0000 
1807.285	6.9379	3.5266	5.2405	0.0000 
1807.285	6.9159	3.5706	5.2405	0.0000 
1807.292	6.8939	3.5870	5.2460	0.0000 
1807.312	6.8500	3.6145	5.2240	0.0000 
1807.335	6.7950	3.6639	5.1746	0.0000 
1807.355	6.7511	3.7189	5.1251	0.0000 
1807.376	6.7346	3.7573	5.0427	0.0000 
1807.457	6.7401	3.7903	4.8834	0.0000 
1807.470	6.7676	3.7958	4.6307	0.0000 
1807.470	6.8390	3.7793	4.3341	0.0000 
1807.470	6.9269	3.7573	4.0430	0.0000 
1807.485	7.0422	3.7244	3.8232	0.0000 
1807.493	7.1906	3.6310	3.7079	0.0000 
1807.505	7.3883	3.4772	3.6145	0.0000 
1807.525	7.5531	3.3618	3.3838	0.0000 
1807.545	7.6300	3.2849	3.0267	0.0000 
1807.565	7.7399	3.2465	2.7191	0.0000 
1807.587	7.8662	3.1696	2.6093	0.0000 
1807.607	7.8937	3.0377	2.6093	0.0000 
1807.688	7.8497	2.9608	2.5543	0.0000 
1807.701	7.8333	3.0103	2.3676	0.0000 
1807.701	7.8882	3.1091	2.1533	0.0000 
1807.701	7.9541	3.1641	1.9940	0.0000 
1807.707	7.9321	3.2080	1.9006	0.0000 
1807.724	7.8278	3.2849	1.8732	0.0000 
1807.744	7.7563	3.3728	1.9281	0.0000 
1807.764	7.7344	3.4442	1.9830	0.0000 
1807.787	7.7179	3.4937	2.0050	0.0000 
1807.864	7.6410	3.5156	1.9995	0.0000 
1807.875	7.4927	3.5211	2.0215	0.0000 
1807.875	7.2894	3.5321	2.1039	0.0000 
1807.875	7.1246	3.5541	2.2357	0.0000 
1807.883	7.0313	3.5760	2.4005	0.0000 
1807.903	6.9653	3.6035	2.5543	0.0000 
1807.923	6.8665	3.6530	2.7026	0.0000 
1807.943	6.7731	3.7354	2.8784	0.0000 
1807.962	6.7291	3.8397	3.1201	0.0000 
1807.985	6.7511	3.9111	3.4332	0.0000 
1808.006	6.7896	3.9551	3.7189	0.0000 
1808.099	6.8005	4.0155	3.9331	0.0000 
1808.106	6.7896	4.0979	4.0814	0.0000 
1808.106	6.7731	4.1693	4.2627	0.0000 
1808.106	6.7950	4.1968	4.5483	0.0000 
1808.106	6.9543	4.1913	4.9658	0.0000 
1808.130	7.1191	4.2023	5.3998	0.0000 
1808.141	7.2949	4.2627	5.7513	0.0000 
1808.161	7.3718	4.3835	6.0205	0.0000 
1808.181	7.2894	4.5538	6.1359	0.0000 
1808.201	7.1521	4.7186	6.1963	0.0000 
1808.276	7.0752	4.7241	6.4764	0.0000 
1808.287	7.0587	4.6252	6.9159	0.0000 
1808.287	7.0203	4.5703	7.2620	0.0000 
1808.287	6.9104	4.5593	7.4597	0.0000 
1808.308	6.7566	4.5648	7.5586	0.0000 
1808.329	6.5808	4.5868	7.6465	0.0000 
1808.341	6.4325	4.6033	7.7673	0.0000 
1808.360	6.3226	4.6143	7.8882	0.0000 
1808.380	6.2018	4.6198	7.9486	0.0000 
1808.451	6.0645	4.6417	7.9266	0.0000 
1808.461	5.9656	4.6582	7.8552	0.0000 
1808.462	5.8887	4.6692	7.7563	0.0000 
1808.469	5.8228	4.6802	7.6135	0.0000 
1808.484	5.7678	4.6967	7.4323	0.0000 
1808.507	5.7239	4.7076	7.2510	0.0000 
1808.529	5.6799	4.7076	7.0697	0.0000 
1808.541	5.6415	4.7186	6.8610	0.0000 
1808.560	5.6525	4.7406	6.5918	0.0000 
1808.580	5.6854	4.7626	6.2842	0.0000 
1808.599	5.7568	4.7681	5.9546	0.0000 
1808.686	5.8557	4.7516	5.6140	0.0000 
1808.693	5.9821	4.7131	5.3174	0.0000 
1808.693	6.0699	4.6362	5.0537	0.0000 
1808.693	6.1743	4.4659	4.8285	0.0000 
1808.699	6.3116	4.2682	4.6033	0.0000 
1808.719	6.4215	4.0375	4.3506	0.0000 
1808.739	6.5259	3.8232	4.1473	0.0000 
1808.764	6.6412	3.6694	4.0594	0.0000 
1808.786	6.6412	3.5156	4.0210	0.0000 
1808.858	6.4929	3.4003	3.9056	0.0000 
1808.873	6.4160	3.3783	3.6584	0.0000 
1808.873	6.4160	3.4387	3.3453	0.0000 
1808.873	6.4050	3.4937	3.0762	0.0000 
1808.880	6.3776	3.5651	2.9169	0.0000 
1808.898	6.2897	3.6749	2.8455	0.0000 
1808.918	6.1908	3.8232	2.8345	0.0000 
1808.938	6.1469	3.9880	2.8345	0.0000 
1808.958	6.1304	4.1473	2.7905	0.0000 
1808.978	6.0645	4.2792	2.6917	0.0000 
1809.003	5.9546	4.3945	2.5928	0.0000 
1809.092	5.8447	4.4714	2.5708	0.0000 
1809.098	5.7623	4.5044	2.6642	0.0000 
1809.098	5.7294	4.5154	2.8345	0.0000 
1809.098	5.7184	4.5483	2.9993	0.0000 
1809.098	5.7019	4.6307	3.1311	0.0000 
1809.125	5.6909	4.7461	3.2849	0.0000 
1809.137	5.7184	4.8669	3.5156	0.0000 
1809.157	5.8118	4.9603	3.8562	0.0000 
1809.176	5.9326	5.0317	4.2188	0.0000 
1809.196	6.0315	5.1086	4.5044	0.0000 
1809.270	6.1084	5.1965	4.7131	0.0000 
1809.281	6.1633	5.2240	4.9054	0.0000 
1809.281	6.2842	5.1965	5.1196	0.0000 
1809.281	6.4709	5.1801	5.3778	0.0000 
1809.304	6.6687	5.1581	5.6305	0.0000 
1809.326	6.8555	5.1636	5.8392	0.0000 
1809.336	6.9214	5.2020	5.9766	0.0000 
1809.355	6.9159	5.2570	6.0260	0.0000 
1809.374	6.9104	5.2679	6.1414	0.0000 
1809.395	6.8829	5.2185	6.3721	0.0000 
1809.414	6.8280	5.1855	6.5753	0.0000 
1809.504	6.7072	5.1636	6.6852	0.0000 
1809.510	6.5643	5.1471	6.7236	0.0000 
1809.510	6.3995	5.1416	6.7236	0.0000 
1809.510	6.3116	5.1196	6.7621	0.0000 
1809.516	6.2347	5.0757	6.8719	0.0000 
1809.536	6.1523	5.0427	6.9543	0.0000 
1809.559	6.0809	5.0482	6.9763	0.0000 
1809.580	6.0425	5.0757	6.9489	0.0000 
1809.605	6.0370	5.0922	6.9104	0.0000 
1809.681	6.0315	5.1306	6.8445	0.0000 
1809.694	6.0370	5.2020	6.7291	0.0000 
1809.694	6.0480	5.2734	6.5698	0.0000 
1809.694	6.0645	5.3174	6.3831	0.0000 
1809.700	6.0754	5.3339	6.1414	0.0000 
1809.713	6.1469	5.3339	5.8667	0.0000 
1809.736	6.2842	5.3064	5.5920	0.0000 
1809.759	6.4655	5.2789	5.3174	0.0000 
1809.781	6.6577	5.2789	5.0592	0.0000 
1809.803	6.8555	5.3009	4.8230	0.0000 
1809.822	7.0477	5.2570	4.6252	0.0000 
1809.832	7.2620	5.1196	4.4110	0.0000 
1809.914	7.4707	4.9658	4.1144	0.0000 
1809.925	7.5696	4.7626	3.7848	0.0000 
1809.925	7.6959	4.5319	3.5541	0.0000 
1809.925	7.8387	4.3396	3.4497	0.0000 
1809.932	7.8882	4.1089	3.4607	0.0000 
1809.952	7.8717	3.9496	3.4662	0.0000 
1809.972	7.8442	3.9606	3.3673	0.0000 
1809.992	7.8497	4.1199	3.1860	0.0000 
1810.014	7.8662	4.3396	2.9663	0.0000 
1810.094	7.8058	4.5538	2.7631	0.0000 
1810.105	7.6465	4.7406	2.6257	0.0000 
1810.106	7.4872	4.8669	2.6038	0.0000 
1810.106	7.3444	4.9164	2.6807	0.0000 
1810.112	7.2125	4.9329	2.7411	0.0000 
1810.131	7.0752	4.9329	2.7301	0.0000 
1810.151	6.9049	4.9164	2.7081	0.0000 
1810.170	6.7236	4.8615	2.7905	0.0000 
1810.195	6.5698	4.7845	2.9279	0.0000 
1810.215	6.4929	4.6967	3.0872	0.0000 
1810.238	6.4160	4.6252	3.2245	0.0000 
1810.259	6.3611	4.5868	3.3398	0.0000 
1810.329	6.3501	4.5758	3.4827	0.0000 
1810.340	6.3831	4.5923	3.6694	0.0000 
1810.340	6.4764	4.6088	3.9111	0.0000 
1810.340	6.5863	4.6198	4.1309	0.0000 
1810.349	6.6907	4.6307	4.2682	0.0000 
1810.370	6.7786	4.6417	4.3341	0.0000 
1810.389	6.8994	4.6143	4.4110	0.0000 
1810.410	7.1301	4.5209	4.5978	0.0000 
1810.429	7.3938	4.4495	4.8999	0.0000 
1810.503	7.6135	4.3671	5.2185	0.0000 
1810.514	7.8223	4.3011	5.4877	0.0000 
1810.514	7.8937	4.3945	5.6140	0.0000 
1810.515	7.7893	4.5648	5.6470	0.0000 
1810.537	7.7014	4.6692	5.7404	0.0000 
1810.557	7.6300	4.6143	5.9875	0.0000 
1810.569	7.5531	4.5264	6.2128	0.0000 
1810.588	7.4817	4.4385	6.3007	0.0000 
1810.608	7.3883	4.3726	6.2787	0.0000 
1810.627	7.2455	4.3286	6.2073	0.0000 
1810.647	7.0532	4.2792	6.1743	0.0000 
1810.736	6.8390	4.2407	6.1908	0.0000 
1810.742	6.6742	4.2407	6.1908	0.0000 
1810.742	6.5533	4.2627	6.1688	0.0000 
1810.742	6.4655	4.2847	6.1304	0.0000 
1810.748	6.3721	4.2957	6.0699	0.0000 
1810.769	6.2952	4.3286	5.9821	0.0000 
1810.792	6.2402	4.3671	5.8997	0.0000 
1810.813	6.2073	4.4110	5.7843	0.0000 
1810.835	6.1688	4.4659	5.5975	0.0000 
1810.910	6.1633	4.5044	5.3503	0.0000 
1810.923	6.2018	4.4989	5.0647	0.0000 
1810.923	6.2842	4.4495	4.7571	0.0000 
1810.923	6.3721	4.4055	4.4110	0.0000 
1810.929	6.4435	4.4000	4.0375	0.0000 
1810.945	6.4819	4.3506	3.6804	0.0000 
1810.965	6.5094	4.2133	3.3344	0.0000 
1810.986	6.5533	4.0485	2.9224	0.0000 
1811.009	6.5479	3.8782	2.4829	0.0000 
1811.032	6.5808	3.7189	2.1259	0.0000 
1811.054	6.6522	3.5651	1.9061	0.0000 
1811.065	6.6302	3.3893	1.7963	0.0000 
1811.146	6.4380	3.2190	1.6260	0.0000 
1811.158	6.1908	3.2574	1.2634	0.0000 
1811.158	6.0315	3.4003	0.8844	0.0000 
1811.158	6.0040	3.5321	0.6262	0.0000 
1811.164	6.0095	3.6255	0.4614	0.0000 
1811.184	5.9326	3.7408	0.3241	0.0000 
1811.204	5.7623	3.8837	0.2197	0.0000 
1811.225	5.5701	4.0485	0.1978	0.0000 
1811.244	5.4492	4.2078	0.2362	0.0000 
1811.322	5.3558	4.3286	0.3076	0.0000 
1811.335	5.2295	4.4220	0.3680	0.0000 
1811.335	5.0757	4.5044	0.4175	0.0000 
1811.336	4.9438	4.5648	0.5328	0.0000 
1811.355	4.8944	4.5978	0.7196	0.0000 
1811.365	4.9109	4.6143	0.9009	0.0000 
1811.385	4.9603	4.6307	1.0492	0.0000 
1811.404	5.0153	4.6362	1.2305	0.0000 
1811.423	5.0922	4.6472	1.4832	0.0000 
1811.500	5.2185	4.6527	1.8018	0.0000 
1811.511	5.3778	4.6417	2.1588	0.0000 
1811.511	5.5261	4.6143	2.4719	0.0000 
1811.511	5.6525	4.6143	2.6971	0.0000 
1811.531	5.7568	4.6747	2.8070	0.0000 
1811.543	5.8612	4.7681	2.9169	0.0000 
1811.562	6.0040	4.8175	3.1805	0.0000 
1811.582	6.2457	4.8175	3.6200	0.0000 
1811.602	6.4325	4.8230	4.1089	0.0000 
1811.622	6.5863	4.8560	4.5044	0.0000 
1811.642	6.6302	4.9384	4.7516	0.0000 
1811.729	6.5424	5.0372	4.8834	0.0000 
1811.736	6.3995	5.1196	4.9329	0.0000 
1811.736	6.3336	5.1086	5.1581	0.0000 
1811.736	6.3501	5.0098	5.5536	0.0000 
1811.742	6.3446	4.9109	5.8557	0.0000 
1811.763	6.3062	4.8395	5.9711	0.0000 
1811.785	6.2073	4.7791	5.9711	0.0000 
1811.807	6.0864	4.6912	5.9601	0.0000 
1811.829	5.9821	4.5813	5.9656	0.0000 
1811.903	5.9216	4.4659	5.9381	0.0000 
1811.914	5.9161	4.3781	5.8667	0.0000 
1811.914	5.9161	4.3341	5.7184	0.0000 
1811.914	5.8502	4.3506	5.4657	0.0000 
1811.920	5.7733	4.4220	5.1526	0.0000 
1811.940	5.7349	4.5099	4.8395	0.0000 
1811.960	5.7513	4.5593	4.5703	0.0000 
1811.980	5.7733	4.5813	4.3451	0.0000 
1812.002	5.7953	4.5813	4.1473	0.0000 
1812.024	5.8447	4.5428	3.9386	0.0000 
1812.045	5.8502	4.4550	3.6475	0.0000 
1812.068	5.8228	4.3781	3.2190	0.0000 
1812.139	5.8282	4.2957	2.7081	0.0000 
1812.150	5.8832	4.1583	2.2247	0.0000 
1812.150	5.9271	3.9606	1.8182	0.0000 
1812.150	5.9711	3.6969	1.4832	0.0000 
1812.159	6.0974	3.4222	1.2634	0.0000 
1812.179	6.2292	3.2080	1.0876	0.0000 
1812.199	6.3776	3.0322	0.9723	0.0000 
1812.218	6.4984	2.9004	0.9009	0.0000 
1812.238	6.4270	2.7521	0.8240	0.0000 
1812.316	6.2292	2.6587	0.6482	0.0000 
1812.327	6.0864	2.6752	0.2966	0.0000 
1812.328	6.0535	2.7301	-0.0714	0.0000 
1812.328	6.0919	2.7411	-0.3131	0.0000 
1812.338	6.1029	2.7301	-0.4230	0.0000 
1812.357	6.0370	2.7356	-0.4779	0.0000 
1812.378	5.9656	2.8125	-0.5273	0.0000 
1812.397	5.9491	2.9333	-0.5603	0.0000 
1812.418	5.9546	3.0597	-0.5548	0.0000 
1812.437	5.9491	3.1750	-0.5219	0.0000 
1812.459	5.8722	3.2794	-0.4614	0.0000 
1812.553	5.7404	3.3948	-0.3571	0.0000 
1812.568	5.6415	3.5101	-0.1813	0.0000 
1812.568	5.6250	3.6145	0.0275	0.0000 
1812.569	5.6909	3.7024	0.2417	0.0000 
1812.569	5.7568	3.8013	0.4230	0.0000 
1812.576	5.7898	3.9166	0.6317	0.0000 
1812.596	5.8392	4.0320	0.9064	0.0000 
1812.616	5.9436	4.1144	1.2689	0.0000 
1812.636	6.0699	4.1748	1.6260	0.0000 
1812.656	6.1578	4.2682	1.8622	0.0000 
1812.730	6.2073	4.4055	2.0050	0.0000 
1812.742	6.2622	4.5703	2.1204	0.0000 
1812.743	6.3556	4.6857	2.3401	0.0000 
1812.743	6.5588	4.7296	2.7136	0.0000 
1812.763	6.8170	4.7571	3.1531	0.0000 
1812.788	7.0697	4.8065	3.5266	0.0000 
1812.797	7.2125	4.8944	3.7628	0.0000 
1812.816	7.1356	4.9933	3.8397	0.0000 
1812.835	6.9489	5.0812	3.8452	0.0000 
1812.855	6.8390	5.0482	4.0540	0.0000 
1812.876	6.8390	4.9274	4.4165	0.0000 
1812.962	6.8115	4.8120	4.6527	0.0000 
1812.969	6.7072	4.7076	4.7021	0.0000 
1812.970	6.5094	4.6198	4.6198	0.0000 
1812.970	6.2732	4.5209	4.5374	0.0000 
1812.976	6.1084	4.4165	4.5319	0.0000 
1812.995	6.0205	4.3011	4.5593	0.0000 
1813.016	5.9711	4.2352	4.5154	0.0000 
1813.039	5.9052	4.2188	4.4000	0.0000 
1813.062	5.7953	4.2462	4.2078	0.0000 
1813.137	5.6909	4.3066	3.9880	0.0000 
1813.148	5.6360	4.3726	3.7958	0.0000 
1813.149	5.5975	4.4275	3.6310	0.0000 
1813.149	5.5536	4.4769	3.4552	0.0000 
1813.156	5.4932	4.5374	3.2465	0.0000 
1813.173	5.4437	4.5978	3.0048	0.0000 
1813.193	5.4218	4.6307	2.7686	0.0000 
1813.213	5.4712	4.6198	2.5323	0.0000 
1813.236	5.5591	4.5978	2.2687	0.0000 
1813.257	5.6470	4.5868	1.9775	0.0000 
1813.278	5.7294	4.6033	1.6754	0.0000 
1813.368	5.7513	4.6143	1.4117	0.0000 
1813.375	5.7843	4.5264	1.2030	0.0000 
1813.375	5.8777	4.3945	1.0162	0.0000 
1813.375	5.9766	4.2297	0.8514	0.0000 
1813.375	6.0864	4.0814	0.7416	0.0000 
1813.402	6.2073	4.0320	0.6812	0.0000 
1813.422	6.1963	4.0430	0.6262	0.0000 
1813.432	5.9930	4.0814	0.4999	0.0000 
1813.451	5.8173	4.1638	0.2472	0.0000 
1813.471	5.7953	4.2627	-0.0769	0.0000 
1813.541	5.8282	4.3231	-0.3461	0.0000 
1813.551	5.8722	4.3176	-0.4944	0.0000 
1813.551	5.8667	4.3231	-0.5713	0.0000 
1813.557	5.7733	4.4000	-0.6097	0.0000 
1813.573	5.6689	4.5374	-0.6482	0.0000 
1813.595	5.6195	4.7241	-0.7471	0.0000 
1813.618	5.5646	4.8889	-0.8789	0.0000 
1813.643	5.4602	4.9988	-1.0272	0.0000 
1813.650	5.3339	5.0702	-1.1206	0.0000 
1813.671	5.2295	5.0977	-1.1151	0.0000 
1813.690	5.1526	5.1031	-1.0217	0.0000 
1813.766	5.1361	5.1196	-0.9283	0.0000 
1813.777	5.1746	5.1691	-0.8789	0.0000 
1813.777	5.2020	5.2240	-0.8624	0.0000 
1813.777	5.2020	5.2789	-0.8240	0.0000 
1813.801	5.2405	5.3174	-0.7196	0.0000 
1813.819	5.3339	5.3064	-0.5109	0.0000 
1813.829	5.4657	5.2625	-0.2692	0.0000 
1813.849	5.5975	5.2240	-0.1044	0.0000 
1813.869	5.7019	5.1910	-0.0275	0.0000 
1813.940	5.7843	5.1471	0.0110	0.0000 
1813.951	5.8557	5.0592	0.0989	0.0000 
1813.951	5.9930	4.9384	0.2747	0.0000 
1813.957	6.1359	4.8340	0.5328	0.0000 
1813.973	6.2567	4.7021	0.7965	0.0000 
1813.995	6.3721	4.5923	1.0052	0.0000 
1814.018	6.4215	4.5593	1.1206	0.0000 
1814.028	6.3501	4.5593	1.1096	0.0000 
1814.048	6.2457	4.5209	1.1536	0.0000 
1814.067	6.1688	4.4055	1.4172	0.0000 
1814.087	6.1084	4.3011	1.7029	0.0000 
1814.175	6.0260	4.2352	1.8347	0.0000 
1814.181	5.9106	4.1913	1.8457	0.0000 
1814.181	5.7953	4.1583	1.8347	0.0000 
1814.181	5.6909	4.1034	1.9006	0.0000 
1814.188	5.6360	4.0430	2.0215	0.0000 
1814.207	5.6360	4.0045	2.1368	0.0000 
1814.229	5.6470	3.9825	2.1918	0.0000 
1814.252	5.6525	3.9990	2.1753	0.0000 
1814.273	5.6415	4.0430	2.1149	0.0000 
1814.351	5.6360	4.1254	2.0490	0.0000 
1814.362	5.6525	4.2023	1.9995	0.0000 
1814.362	5.6799	4.2737	1.9501	0.0000 
1814.362	5.6964	4.3341	1.8732	0.0000 
1814.369	5.7513	4.3616	1.7798	0.0000 
1814.386	5.8337	4.3451	1.6699	0.0000 
1814.406	5.9601	4.2902	1.5216	0.0000 
1814.428	6.1084	4.2297	1.3623	0.0000 
1814.449	6.2787	4.1968	1.1865	0.0000 
1814.472	6.4545	4.1968	1.0437	0.0000 
1814.493	6.6138	4.1858	0.9503	0.0000 
1814.516	6.7786	4.1418	0.8514	0.0000 
1814.593	6.9049	4.0869	0.6921	0.0000 
1814.607	7.0038	3.9935	0.5109	0.0000 
1814.607	7.0752	3.9001	0.3680	0.0000 
1814.607	7.1631	3.8452	0.2747	0.0000 
1814.613	7.1136	3.8013	0.2362	0.0000 
1814.626	6.9269	3.8013	0.1318	0.0000 
1814.651	6.7676	3.9001	-0.0879	0.0000 
1814.670	6.7072	3.9825	-0.2911	0.0000 
1814.693	6.6907	3.9990	-0.3735	0.0000 
1814.769	6.6577	4.0045	-0.3516	0.0000 
1814.781	6.5369	4.0540	-0.2692	0.0000 
1814.781	6.3501	4.1418	-0.1703	0.0000 
1814.782	6.1963	4.2517	-0.1099	0.0000 
1814.788	6.0699	4.3506	-0.1099	0.0000 
1814.804	5.9271	4.4275	-0.1703	0.0000 
1814.824	5.7788	4.4604	-0.2087	0.0000 
1814.849	5.5975	4.4440	-0.1758	0.0000 
1814.870	5.4327	4.4000	-0.0879	0.0000 
1814.893	5.3284	4.3561	0.0000	0.0000 
1814.903	5.2734	4.3066	0.0769	0.0000 
1814.923	5.2130	4.2572	0.1263	0.0000 
1815.003	5.1141	4.2242	0.1593	0.0000 
1815.010	5.0372	4.2352	0.2417	0.0000 
1815.010	5.0317	4.2297	0.4120	0.0000 
1815.010	5.1416	4.1968	0.6812	0.0000 
1815.022	5.2899	4.1364	0.9503	0.0000 
1815.042	5.4053	4.1034	1.1041	0.0000 
1815.062	5.4657	4.1364	1.1700	0.0000 
1815.082	5.5042	4.1858	1.1975	0.0000 
1815.102	5.6689	4.1528	1.3458	0.0000 
1815.177	5.8942	4.1144	1.6260	0.0000 
1815.189	6.1523	4.1528	1.9061	0.0000 
1815.189	6.3776	4.2242	2.1423	0.0000 
1815.189	6.4435	4.2957	2.2961	0.0000 
1815.209	6.3831	4.4110	2.3016	0.0000 
1815.221	6.3885	4.5044	2.4005	0.0000 
1815.241	6.4709	4.4495	2.7466	0.0000 
1815.261	6.5204	4.3671	3.0432	0.0000 
1815.280	6.4600	4.3506	3.1146	0.0000 
1815.300	6.3007	4.3726	3.0377	0.0000 
1815.321	6.1139	4.3945	2.9114	0.0000 
1815.401	5.9656	4.3726	2.8564	0.0000 
1815.412	5.8557	4.3341	2.8674	0.0000 
1815.412	5.7898	4.3231	2.8510	0.0000 
1815.412	5.6854	4.3616	2.8015	0.0000 
1815.420	5.5481	4.4714	2.6807	0.0000 
1815.440	5.4272	4.5978	2.5214	0.0000 
1815.459	5.3284	4.6912	2.3621	0.0000 
1815.480	5.2515	4.7845	2.1698	0.0000 
1815.501	5.2075	4.8724	1.9336	0.0000 
1815.578	5.1471	4.9438	1.6974	0.0000 
1815.590	5.0922	4.9768	1.4282	0.0000 
1815.590	5.0647	4.9768	1.1206	0.0000 
1815.590	5.0757	4.9384	0.8020	0.0000 
1815.600	5.1141	4.8834	0.4559	0.0000 
1815.619	5.1855	4.8505	0.0659	0.0000 
1815.639	5.2954	4.8395	-0.3296	0.0000 
1815.659	5.3888	4.8120	-0.7031	0.0000 
1815.679	5.4657	4.7186	-1.0602	0.0000 
1815.700	5.6140	4.5648	-1.3953	0.0000 
1815.720	5.7513	4.3671	-1.7303	0.0000 
1815.810	5.8832	4.1583	-2.0160	0.0000 
1815.816	6.0260	4.0045	-2.2302	0.0000 
1815.816	6.0919	3.9056	-2.4115	0.0000 
1815.816	5.9821	3.8452	-2.6367	0.0000 
1815.823	5.8667	3.8342	-2.9388	0.0000 
1815.842	5.8612	3.8342	-3.2904	0.0000 
1815.865	5.9106	3.7958	-3.5706	0.0000 
1815.887	5.9821	3.7354	-3.7463	0.0000 
1815.908	6.0480	3.6804	-3.7848	0.0000 
1815.986	6.0425	3.6584	-3.7793	0.0000 
1815.998	5.9930	3.7024	-3.8342	0.0000 
1815.999	5.9711	3.7958	-3.9771	0.0000 
1815.999	5.9161	3.8672	-4.1583	0.0000 
1816.005	5.8282	3.9221	-4.3396	0.0000 
1816.018	5.7404	3.9221	-4.4165	0.0000 
1816.040	5.6580	3.8947	-4.4000	0.0000 
1816.066	5.5920	3.8727	-4.3011	0.0000 
1816.086	5.5701	3.8562	-4.1913	0.0000 
1816.096	5.5756	3.8617	-4.0869	0.0000 
1816.117	5.5536	3.9056	-4.0210	0.0000 
1816.136	5.4712	3.9716	-3.9606	0.0000 
1816.225	5.3723	4.0375	-3.8617	0.0000 
1816.231	5.3394	4.0759	-3.6749	0.0000 
1816.231	5.3778	4.0594	-3.3728	0.0000 
1816.231	5.4712	4.0265	-3.0762	0.0000 
1816.237	5.5811	3.9935	-2.8400	0.0000 
1816.258	5.7019	3.9716	-2.6367	0.0000 
1816.280	5.8282	3.8947	-2.3566	0.0000 
1816.302	6.0699	3.7793	-1.9226	0.0000 
1816.323	6.3501	3.6639	-1.4227	0.0000 
1816.399	6.6577	3.5870	-0.9888	0.0000 
1816.410	6.9269	3.7189	-0.7800	0.0000 
1816.410	6.9873	3.9606	-0.7581	0.0000 
1816.410	6.8225	4.2133	-0.8954	0.0000 
1816.416	6.6797	4.3561	-0.8734	0.0000 
1816.434	6.6907	4.3341	-0.5219	0.0000 
1816.454	6.7566	4.2297	-0.1044	0.0000 
1816.477	6.7896	4.1199	0.1373	0.0000 
1816.498	6.7181	4.0869	0.2307	0.0000 
1816.576	6.5753	4.1034	0.2582	0.0000 
1816.588	6.4600	4.1034	0.3296	0.0000 
1816.588	6.4270	4.0924	0.4120	0.0000 
1816.589	6.4105	4.1254	0.4559	0.0000 
1816.595	6.3940	4.2352	0.4395	0.0000 
1816.613	6.3776	4.3890	0.3735	0.0000 
1816.633	6.3611	4.5374	0.2911	0.0000 
1816.653	6.3281	4.6637	0.1758	0.0000 
1816.673	6.3062	4.7736	0.0604	0.0000 
1816.695	6.2787	4.8450	-0.0275	0.0000 
1816.717	6.2347	4.8834	-0.1318	0.0000 
1816.806	6.1853	4.9164	-0.3131	0.0000 
1816.812	6.1688	4.9329	-0.5603	0.0000 
1816.813	6.2292	4.9054	-0.8295	0.0000 
1816.813	6.3501	4.8560	-1.0822	0.0000 
1816.813	6.4764	4.7736	-1.2909	0.0000 
1816.838	6.5753	4.7076	-1.4886	0.0000 
1816.860	6.6577	4.6857	-1.6919	0.0000 
1816.872	6.7126	4.6527	-1.8677	0.0000 
1816.891	6.7676	4.6088	-2.0819	0.0000 
1816.911	6.8280	4.5703	-2.3621	0.0000 
1816.984	6.8060	4.5099	-2.6917	0.0000 
1816.996	6.7676	4.4385	-2.9993	0.0000 
1816.996	6.7950	4.3835	-3.2300	0.0000 
1817.003	6.8994	4.3176	-3.3234	0.0000 
1817.019	6.9324	4.2188	-3.4003	0.0000 
1817.039	6.8170	4.1309	-3.6145	0.0000 
1817.063	6.6907	4.1418	-3.9551	0.0000 
1817.071	6.6797	4.1913	-4.2792	0.0000 
1817.091	6.7676	4.1748	-4.4440	0.0000 
1817.111	6.8555	4.1364	-4.4989	0.0000 
1817.130	6.8884	4.1583	-4.5264	0.0000 
1817.214	6.8170	4.2407	-4.5374	0.0000 
1817.221	6.7126	4.3726	-4.5758	0.0000 
1817.221	6.6193	4.4879	-4.6417	0.0000 
1817.221	6.5259	4.5648	-4.6802	0.0000 
1817.230	6.4215	4.5923	-4.6582	0.0000 
1817.250	6.2842	4.5923	-4.5868	0.0000 
1817.272	6.1414	4.5868	-4.4879	0.0000 
1817.290	6.0205	4.5923	-4.3781	0.0000 
1817.313	5.9326	4.6088	-4.2737	0.0000 
1817.393	5.8557	4.6362	-4.1254	0.0000 
1817.404	5.7898	4.6692	-3.9056	0.0000 
1817.405	5.7129	4.7076	-3.5925	0.0000 
1817.405	5.6854	4.7681	-3.2410	0.0000 
1817.411	5.7129	4.8340	-2.8674	0.0000 
1817.428	5.7623	4.8999	-2.5323	0.0000 
1817.449	5.8282	4.9713	-2.2577	0.0000 
1817.470	5.8942	5.0592	-2.0050	0.0000 
1817.492	5.9930	5.1306	-1.7523	0.0000 
1817.519	6.1908	5.1691	-1.4008	0.0000 
1817.528	6.4105	5.2075	-0.9668	0.0000 
1817.548	6.5973	5.2570	-0.5823	0.0000 
1817.629	6.6962	5.3943	-0.3461	0.0000 
1817.635	6.6302	5.6030	-0.2966	0.0000 
1817.635	6.5149	5.7843	-0.2582	0.0000 
1817.635	6.4764	5.8337	-0.0165	0.0000 
1817.647	6.5369	5.7513	0.3625	0.0000 
1817.667	6.5698	5.6360	0.6372	0.0000 
1817.687	6.5424	5.5481	0.7196	0.0000 
1817.707	6.4600	5.5042	0.6976	0.0000 
1817.727	6.3776	5.4382	0.7031	0.0000 
1817.807	6.3556	5.3229	0.7800	0.0000 
1817.818	6.3831	5.1965	0.8514	0.0000 
1817.819	6.3995	5.1031	0.8569	0.0000 
1817.819	6.3995	5.0647	0.7910	0.0000 
1817.826	6.4215	5.0427	0.7361	0.0000 
1817.846	6.4435	5.0153	0.6866	0.0000 
1817.867	6.4270	5.0098	0.6262	0.0000 
1817.886	6.3940	5.0372	0.5383	0.0000 
1817.906	6.3666	5.0482	0.4724	0.0000 
1817.928	6.3007	5.0262	0.4120	0.0000 
1817.952	6.2292	5.0153	0.2802	0.0000 
1818.043	6.1853	5.0098	0.0934	0.0000 
1818.049	6.1908	4.9713	-0.0824	0.0000 
1818.049	6.2292	4.9219	-0.2417	0.0000 
1818.049	6.2897	4.8944	-0.4175	0.0000 
1818.049	6.3776	4.9109	-0.5933	0.0000 
1818.077	6.4655	4.9274	-0.7196	0.0000 
1818.084	6.5204	4.8999	-0.8075	0.0000 
1818.104	6.6028	4.8010	-0.9174	0.0000 
1818.124	6.7017	4.6747	-1.0602	0.0000 
1818.144	6.7786	4.5538	-1.2030	0.0000 
1818.219	6.8994	4.4550	-1.2305	0.0000 
1818.229	6.9379	4.3835	-1.1646	0.0000 
1818.230	6.8170	4.3286	-1.1206	0.0000 
1818.230	6.6742	4.3835	-1.2140	0.0000 
1818.252	6.6028	4.4659	-1.3623	0.0000 
1818.275	6.6028	4.4879	-1.4337	0.0000 
1818.283	6.6248	4.4714	-1.4227	0.0000 
1818.303	6.5863	4.4659	-1.3239	0.0000 
1818.323	6.4929	4.5044	-1.1920	0.0000 
1818.343	6.4105	4.5978	-1.0876	0.0000 
1818.363	6.3556	4.7076	-1.0382	0.0000 
1818.453	6.3007	4.8010	-1.0547	0.0000 
1818.460	6.2018	4.8669	-1.0602	0.0000 
1818.460	6.1029	4.9054	-0.9943	0.0000 
1818.460	6.0150	4.9109	-0.8350	0.0000 
1818.466	5.9216	4.8999	-0.6097	0.0000 
1818.487	5.8392	4.9054	-0.4065	0.0000 
1818.511	5.7678	4.9493	-0.2307	0.0000 
1818.529	5.6909	5.0208	-0.0549	0.0000 
1818.554	5.6195	5.1031	0.1538	0.0000 
1818.636	5.5865	5.1855	0.4230	0.0000 
1818.646	5.5865	5.2625	0.7471	0.0000 
1818.646	5.6030	5.3339	1.0712	0.0000 
1818.647	5.6085	5.4108	1.3568	0.0000 
1818.647	5.5811	5.4822	1.6205	0.0000 
1818.668	5.5426	5.5206	1.8622	0.0000 
1818.690	5.5920	5.5536	2.1204	0.0000 
1818.702	5.6250	5.6250	2.3785	0.0000 
1818.721	5.6580	5.7074	2.6257	0.0000 
1818.742	5.7129	5.7678	2.8949	0.0000 
1818.841	5.7404	5.7898	3.1696	0.0000 
1818.859	5.6854	5.8228	3.3783	0.0000 
1818.860	5.6525	5.8667	3.5870	0.0000 
1818.860	5.6415	5.9052	3.8287	0.0000 
1818.861	5.6085	5.9326	4.0320	0.0000 
1818.883	5.5316	5.9546	4.1089	0.0000 
1818.904	5.4547	5.9656	4.1199	0.0000 
1818.927	5.3888	5.9271	4.0979	0.0000 
1818.953	5.3558	5.8557	4.1089	0.0000 
1818.975	5.3174	5.7843	4.1748	0.0000 
1818.994	5.2844	5.7458	4.2847	0.0000 
1818.995	5.2570	5.7184	4.4659	0.0000 
1819.001	5.2295	5.7074	4.6472	0.0000 
1819.134	5.1855	5.7294	4.7516	0.0000 
1819.153	5.1581	5.7788	4.8010	0.0000 
1819.154	5.1196	5.8337	4.8395	0.0000 
1819.155	5.0647	5.8942	4.8834	0.0000 
1819.155	5.0098	5.9711	4.9164	0.0000 
1819.155	4.9603	6.0370	4.9603	0.0000 
1819.155	4.9548	6.1139	4.9658	0.0000 
1819.176	4.9933	6.1853	4.9219	0.0000 
1819.195	5.0427	6.2402	4.8230	0.0000 
1819.301	5.0812	6.2787	4.6802	0.0000 
1819.319	5.1801	6.3226	4.5319	0.0000 
1819.319	5.3119	6.3501	4.4275	0.0000 
1819.319	5.4657	6.3666	4.3616	0.0000 
1819.319	5.6195	6.3446	4.2902	0.0000 
1819.320	5.7678	6.2622	4.2078	0.0000 
1819.340	5.8942	6.1523	4.0869	0.0000 
1819.346	5.9601	6.0425	3.9331	0.0000 
1819.372	6.0150	5.9381	3.8452	0.0000 
1819.388	6.1414	5.8502	3.8617	0.0000 
1819.411	6.2402	5.7513	3.9441	0.0000 
1819.435	6.2457	5.6635	3.9661	0.0000 
1819.537	6.1853	5.6525	3.8397	0.0000 
1819.555	6.1798	5.6525	3.7024	0.0000 
1819.556	6.2622	5.6305	3.6530	0.0000 
1819.556	6.3501	5.5811	3.7134	0.0000 
1819.557	6.4050	5.5646	3.8562	0.0000 
1819.557	6.3721	5.6085	3.9880	0.0000 
1819.578	6.2952	5.7184	4.0540	0.0000 
1819.684	6.2292	5.8447	4.0540	0.0000 
1819.703	6.1578	5.9216	4.0485	0.0000 
1819.703	6.0535	5.9491	4.0485	0.0000 
1819.703	5.9381	5.9271	4.1144	0.0000 
1819.704	5.8282	5.8887	4.2352	0.0000 
1819.704	5.7568	5.8502	4.3945	0.0000 
1819.725	5.7404	5.8337	4.5538	0.0000 
1819.746	5.7458	5.8337	4.6857	0.0000 
1819.753	5.7074	5.8337	4.8065	0.0000 
1819.774	5.6305	5.8282	4.9933	0.0000 
1819.793	5.5701	5.8228	5.2570	0.0000 
1819.812	5.6140	5.7843	5.6470	0.0000 
1819.919	5.7184	5.7184	6.0864	0.0000 
1819.936	5.7898	5.6744	6.4380	0.0000 
1819.936	5.8337	5.6909	6.6577	0.0000 
1819.937	5.8392	5.7404	6.8170	0.0000 
1819.937	5.9052	5.7129	7.0532	0.0000 
1819.937	6.0864	5.6085	7.4652	0.0000 
1819.956	6.2402	5.4822	7.9047	0.0000 
1819.979	6.4325	5.3668	8.3057	0.0000 
1820.084	6.5698	5.3339	8.6023	0.0000 
1820.101	6.5204	5.3723	8.7396	0.0000 
1820.102	6.3721	5.4218	8.7561	0.0000 
1820.102	6.2677	5.3998	8.8934	0.0000 
1820.103	6.2622	5.2734	9.2120	0.0000 
1820.103	6.2677	5.1251	9.5197	0.0000 
1820.123	6.2183	5.0153	9.6735	0.0000 
1820.145	6.1359	4.9603	9.7119	0.0000 
1820.151	6.0425	4.9329	9.7284	0.0000 
1820.169	5.9875	4.8724	9.7833	0.0000 
1820.190	5.9326	4.7955	9.8492	0.0000 
1820.298	5.8777	4.7296	9.8932	0.0000 
1820.316	5.8447	4.6802	9.9207	0.0000 
1820.316	5.8392	4.6802	9.9426	0.0000 
1820.317	5.8612	4.7186	9.9207	0.0000 
1820.317	5.9052	4.7900	9.8602	0.0000 
1820.317	5.9216	4.8669	9.7833	0.0000 
1820.337	5.9271	4.9274	9.7229	0.0000 
1820.357	5.9326	4.9878	9.6570	0.0000 
1820.366	5.9491	5.0482	9.5526	0.0000 
1820.384	5.9766	5.0812	9.3878	0.0000 
1820.406	6.0315	5.0922	9.1791	0.0000 
1820.512	6.1029	5.0702	8.9648	0.0000 
1820.529	6.1743	5.0208	8.7561	0.0000 
1820.529	6.2732	4.9658	8.5583	0.0000 
1820.529	6.3940	4.9054	8.3771	0.0000 
1820.529	6.4819	4.7845	8.1958	0.0000 
1820.529	6.6028	4.5868	7.9706	0.0000 
1820.536	6.7621	4.4000	7.6520	0.0000 
1820.559	6.8610	4.2023	7.3059	0.0000 
1820.583	6.9818	4.0100	7.0697	0.0000 
1820.591	7.1686	3.8342	6.9983	0.0000 
1820.621	7.2400	3.6255	7.0203	0.0000 
1820.644	7.1686	3.4552	6.9818	0.0000 
1820.747	7.0862	3.4222	6.8610	0.0000 
1820.763	7.0477	3.4662	6.7401	0.0000 
1820.763	7.0752	3.5101	6.6742	0.0000 
1820.764	7.0972	3.5651	6.6632	0.0000 
1820.764	7.0477	3.6475	6.6962	0.0000 
1820.764	6.9159	3.7738	6.7346	0.0000 
1820.785	6.7731	3.9771	6.7731	0.0000 
1820.915	6.6962	4.1803	6.8225	0.0000 
1820.921	6.6522	4.3231	6.9104	0.0000 
1820.921	6.5753	4.4440	6.9818	0.0000 
1820.922	6.4490	4.5428	7.0752	0.0000 
1820.922	6.3116	4.6362	7.1851	0.0000 
1820.922	6.2018	4.7186	7.3444	0.0000 
1820.922	6.1249	4.7900	7.5146	0.0000 
1820.929	6.0645	4.8834	7.6410	0.0000 
1820.958	5.9711	4.9988	7.7509	0.0000 
1820.985	5.8777	5.1196	7.9102	0.0000 
1820.991	5.8502	5.2350	8.1409	0.0000 
1821.010	5.9106	5.3119	8.4650	0.0000 
1821.028	6.0095	5.3448	8.8055	0.0000 
1821.146	6.1139	5.3943	9.0747	0.0000 
1821.152	6.1523	5.4437	9.2780	0.0000 
1821.152	6.2073	5.4712	9.4482	0.0000 
1821.152	6.3226	5.4822	9.7064	0.0000 
1821.153	6.4215	5.4712	10.0195	0.0000 
1821.153	6.5588	5.4932	10.2887	0.0000 
1821.169	6.6248	5.5536	10.4590	0.0000 
1821.188	6.5698	5.6195	10.5469	0.0000 
1821.302	6.5149	5.6580	10.6677	0.0000 
1821.308	6.4984	5.6085	10.9698	0.0000 
1821.308	6.5259	5.5261	11.3159	0.0000 
1821.308	6.5369	5.4822	11.5027	0.0000 
1821.308	6.4764	5.4547	11.5356	0.0000 
1821.308	6.3611	5.4272	11.4917	0.0000 
1821.340	6.2677	5.3833	11.4752	0.0000 
1821.361	6.2183	5.3064	11.5192	0.0000 
1821.368	6.1853	5.2405	11.5796	0.0000 
1821.387	6.1359	5.2075	11.6125	0.0000 
1821.409	6.0535	5.2130	11.5851	0.0000 
1821.536	5.9491	5.2570	11.4587	0.0000 
1821.542	5.8667	5.3009	11.3159	0.0000 
1821.542	5.8337	5.3503	11.1786	0.0000 
1821.542	5.8392	5.4108	11.0248	0.0000 
1821.542	5.8447	5.4822	10.8215	0.0000 
1821.542	5.8337	5.5536	10.5524	0.0000 
1821.548	5.8228	5.6085	10.2283	0.0000 
1821.574	5.8173	5.6250	9.8547	0.0000 
1821.596	5.8667	5.6085	9.4482	0.0000 
1821.700	5.9766	5.5701	9.0417	0.0000 
1821.716	6.0809	5.5206	8.6792	0.0000 
1821.716	6.1578	5.4657	8.3826	0.0000 
1821.716	6.2292	5.3394	8.1409	0.0000 
1821.716	6.3721	5.1361	7.9266	0.0000 
1821.716	6.5204	4.8999	7.6904	0.0000 
1821.738	6.6522	4.6362	7.4872	0.0000 
1821.761	6.8115	4.4604	7.3828	0.0000 
1821.768	6.7950	4.3671	7.3224	0.0000 
1821.787	6.6193	4.2847	7.2620	0.0000 
1821.806	6.4545	4.2462	7.1411	0.0000 
1821.933	6.3995	4.2352	6.9818	0.0000 
1821.939	6.3885	4.2352	6.8335	0.0000 
1821.939	6.3831	4.1968	6.7456	0.0000 
1821.939	6.2952	4.1693	6.6962	0.0000 
1821.939	6.1469	4.1858	6.7126	0.0000 
1821.940	6.0260	4.2407	6.7566	0.0000 
1821.946	5.9821	4.3011	6.8225	0.0000 
1821.972	5.9326	4.3176	6.8774	0.0000 
1821.995	5.8228	4.3176	6.8884	0.0000 
1822.017	5.6744	4.2682	6.9434	0.0000 
1822.039	5.5591	4.1638	7.0862	0.0000 
1822.063	5.5151	4.0155	7.3114	0.0000 
1822.186	5.5042	3.8782	7.5476	0.0000 
1822.205	5.4987	3.7958	7.7289	0.0000 
1822.205	5.4657	3.7518	7.9321	0.0000 
1822.205	5.4437	3.7354	8.2013	0.0000 
1822.206	5.4877	3.7079	8.5638	0.0000 
1822.206	5.5701	3.6749	8.9429	0.0000 
1822.206	5.6195	3.6530	9.2505	0.0000 
1822.223	5.6360	3.6804	9.4482	0.0000 
1822.230	5.6635	3.7189	9.6021	0.0000 
1822.245	5.7733	3.7299	9.7943	0.0000 
1822.268	5.9601	3.7024	10.1074	0.0000 
1822.390	6.1578	3.6914	10.5084	0.0000 
1822.396	6.3391	3.6969	10.8820	0.0000 
1822.396	6.5039	3.7848	11.1676	0.0000 
1822.397	6.5808	3.8892	11.4038	0.0000 
1822.397	6.5753	3.9935	11.5906	0.0000 
1822.398	6.5643	4.0540	11.8597	0.0000 
1822.405	6.5533	4.0649	12.2498	0.0000 
1822.432	6.5479	4.0704	12.6123	0.0000 
1822.440	6.5259	4.0924	12.8210	0.0000 
1822.591	6.4709	4.1089	12.9034	0.0000 
1822.607	6.3721	4.1309	12.9529	0.0000 
1822.607	6.2952	4.1309	13.0518	0.0000 
1822.607	6.2457	4.0924	13.2275	0.0000 
1822.607	6.1908	4.0375	13.3923	0.0000 
1822.607	6.1359	4.0155	13.4857	0.0000 
1822.607	6.0974	4.0265	13.5077	0.0000 
1822.607	6.0699	4.0375	13.5132	0.0000 
1822.635	6.0590	4.0594	13.4967	0.0000 
1822.642	6.0699	4.1089	13.4583	0.0000 
1822.668	6.0699	4.1693	13.3978	0.0000 
1822.685	6.0754	4.2023	13.3209	0.0000 
1822.806	6.1029	4.2023	13.2440	0.0000 
1822.812	6.1304	4.1528	13.1342	0.0000 
1822.813	6.1798	4.0924	12.9858	0.0000 
1822.813	6.2897	4.0155	12.8101	0.0000 
1822.813	6.4490	3.9221	12.6453	0.0000 
1822.813	6.6467	3.8617	12.4915	0.0000 
1822.819	6.8445	3.8123	12.3541	0.0000 
1822.845	7.0148	3.7518	12.2278	0.0000 
1822.966	7.2015	3.6969	12.0850	0.0000 
1822.972	7.3169	3.6694	11.8872	0.0000 
1822.972	7.4048	3.6310	11.7334	0.0000 
1822.972	7.5201	3.5980	11.7059	0.0000 
1822.973	7.6135	3.5596	11.7609	0.0000 
1822.973	7.5916	3.4882	11.7938	0.0000 
1822.979	7.4982	3.4387	11.7499	0.0000 
1823.004	7.4213	3.4387	11.6565	0.0000 
1823.027	7.4487	3.4552	11.5851	0.0000 
1823.127	7.5256	3.4497	11.5851	0.0000 
1823.146	7.5531	3.4607	11.6400	0.0000 
1823.147	7.4872	3.5376	11.7004	0.0000 
1823.148	7.3883	3.6639	11.7499	0.0000 
1823.148	7.3444	3.7793	11.8158	0.0000 
1823.168	7.3389	3.8397	11.8762	0.0000 
1823.189	7.3224	3.8562	11.9202	0.0000 
1823.210	7.2455	3.8232	11.9861	0.0000 
1823.234	7.1356	3.7683	12.1179	0.0000 
1823.234	7.0422	3.7079	12.3322	0.0000 
1823.355	6.9818	3.6639	12.5464	0.0000 
1823.361	6.9269	3.6475	12.7112	0.0000 
1823.361	6.8555	3.6475	12.8705	0.0000 
1823.361	6.8060	3.6584	13.1012	0.0000 
1823.361	6.7950	3.6694	13.4143	0.0000 
1823.362	6.8170	3.6749	13.7933	0.0000 
1823.362	6.8665	3.6914	14.1559	0.0000 
1823.375	6.9269	3.7299	14.4635	0.0000 
1823.396	6.9983	3.7793	14.7327	0.0000 
1823.418	7.0313	3.8342	14.9689	0.0000 
1823.440	7.0807	3.8727	15.2271	0.0000 
1823.466	7.1466	3.9441	15.5402	0.0000 
1823.488	7.1796	4.0210	15.8917	0.0000 
1823.591	7.2400	4.0869	16.2213	0.0000 
1823.607	7.2784	4.1638	16.4795	0.0000 
1823.607	7.2070	4.2352	16.6553	0.0000 
1823.608	7.0917	4.2737	16.8036	0.0000 
1823.608	6.9818	4.2133	17.1112	0.0000 
1823.609	6.9269	4.1254	17.5177	0.0000 
1823.631	6.8774	4.0814	17.8418	0.0000 
1823.652	6.8060	4.1034	17.9681	0.0000 
1823.754	6.6907	4.1528	17.9462	0.0000 
1823.770	6.5424	4.1858	17.8967	0.0000 
1823.771	6.4160	4.1858	17.8638	0.0000 
1823.771	6.3007	4.1638	17.8583	0.0000 
1823.772	6.1469	4.1309	17.8418	0.0000 
1823.772	5.9766	4.1089	17.7869	0.0000 
1823.790	5.8173	4.1089	17.6550	0.0000 
1823.800	5.6360	4.1254	17.4628	0.0000 
1823.814	5.4822	4.1693	17.2540	0.0000 
1823.835	5.3723	4.2133	17.0673	0.0000 
1823.866	5.3009	4.2627	16.8970	0.0000 
1823.967	5.2295	4.3231	16.6772	0.0000 
1823.985	5.1471	4.4165	16.3586	0.0000 
1823.985	5.0427	4.5374	15.9467	0.0000 
1823.985	4.9493	4.6637	15.4852	0.0000 
1823.985	4.9274	4.7571	15.0568	0.0000 
1823.986	4.9878	4.8395	14.6722	0.0000 
1824.004	5.0482	4.9054	14.2877	0.0000 
1824.011	4.9878	4.8779	13.8922	0.0000 
1824.035	5.0867	4.7900	13.5187	0.0000 
1824.053	5.3174	4.6472	13.2275	0.0000 
1824.076	5.4602	4.4330	12.9584	0.0000 
1824.182	5.4657	4.3066	12.6123	0.0000 
1824.202	5.3998	4.2792	12.2992	0.0000 
1824.202	5.3503	4.2847	12.0905	0.0000 
1824.203	5.3558	4.3121	11.8597	0.0000 
1824.203	5.3448	4.3286	11.6016	0.0000 
1824.225	5.3284	4.3396	11.3434	0.0000 
1824.246	5.2954	4.3121	11.1676	0.0000 
1824.246	5.2185	4.2627	11.0962	0.0000 
1824.253	5.1196	4.2023	11.0962	0.0000 
1824.271	5.0043	4.1693	11.1072	0.0000 
1824.298	4.8669	4.1528	11.0962	0.0000 
1824.323	4.7076	4.1309	11.0852	0.0000 
1824.344	4.5648	4.0759	11.1346	0.0000 
1824.367	4.4604	3.9661	11.2994	0.0000 
1824.388	4.4165	3.8452	11.4972	0.0000 
1824.411	4.4440	3.7244	11.7279	0.0000 
1824.435	4.5319	3.6310	11.9531	0.0000 
1824.558	4.6088	3.5925	12.1619	0.0000 
1824.578	4.5868	3.5980	12.3102	0.0000 
1824.578	4.5483	3.6310	12.4365	0.0000 
1824.579	4.5099	3.6255	12.6123	0.0000 
1824.579	4.4879	3.5870	12.7881	0.0000 
1824.579	4.4550	3.5376	12.9199	0.0000 
1824.579	4.4000	3.4827	13.0133	0.0000 
1824.606	4.3451	3.4113	13.1067	0.0000 
1824.629	4.3066	3.3453	13.2166	0.0000 
1824.630	4.2957	3.2904	13.3374	0.0000 
1824.652	4.3066	3.2355	13.4637	0.0000 
1824.772	4.3066	3.1805	13.5791	0.0000 
1824.778	4.2847	3.1311	13.6615	0.0000 
1824.778	4.2462	3.0872	13.7109	0.0000 
1824.778	4.1858	3.0542	13.7219	0.0000 
1824.779	4.1418	3.0377	13.7109	0.0000 
1824.779	4.1199	3.0212	13.7274	0.0000 
1824.779	4.1144	3.0103	13.7604	0.0000 
1824.787	4.1199	2.9993	13.7988	0.0000 
1824.810	4.1199	2.9938	13.8318	0.0000 
1824.831	4.1144	2.9993	13.8373	0.0000 
1824.854	4.1089	3.0267	13.8318	0.0000 
1824.882	4.0869	3.0652	13.7933	0.0000 
1824.989	4.0594	3.1091	13.7549	0.0000 
1825.006	4.0375	3.1476	13.7384	0.0000 
1825.006	4.0485	3.1860	13.7494	0.0000 
1825.006	4.0704	3.2245	13.7604	0.0000 
1825.006	4.0869	3.2739	13.7384	0.0000 
1825.006	4.0979	3.3344	13.7000	0.0000 
1825.029	4.0924	3.3948	13.6670	0.0000 
1825.053	4.0759	3.4442	13.6450	0.0000 
1825.073	4.0594	3.4991	13.6340	0.0000 
1825.099	4.0594	3.5431	13.6450	0.0000 
1825.223	4.0594	3.5706	13.6505	0.0000 
1825.223	4.0430	3.6035	13.6560	0.0000 
1825.229	4.0485	3.6365	13.6505	0.0000 
1825.232	4.0759	3.6639	13.6560	0.0000 
1825.232	4.1144	3.6804	13.6560	0.0000 
1825.232	4.1473	3.6914	13.6450	0.0000 
1825.232	4.1858	3.6969	13.6395	0.0000 
1825.232	4.2297	3.7024	13.6285	0.0000 
1825.245	4.2737	3.7134	13.5956	0.0000 
1825.264	4.3231	3.7299	13.5461	0.0000 
1825.383	4.3616	3.7299	13.5187	0.0000 
1825.391	4.3945	3.7244	13.5022	0.0000 
1825.391	4.4440	3.7134	13.4802	0.0000 
1825.391	4.4989	3.6859	13.4528	0.0000 
1825.391	4.5319	3.6804	13.3868	0.0000 
1825.391	4.5648	3.6969	13.2880	0.0000 
1825.403	4.6088	3.7024	13.2166	0.0000 
1825.422	4.6747	3.6914	13.1781	0.0000 
1825.443	4.7681	3.6694	13.1561	0.0000 
1825.467	4.8560	3.6475	13.1122	0.0000 
1825.491	4.9329	3.6200	13.0463	0.0000 
1825.595	5.0043	3.5815	12.9858	0.0000 
1825.613	5.0702	3.5321	12.9419	0.0000 
1825.613	5.1471	3.4827	12.8705	0.0000 
1825.613	5.2130	3.4277	12.7716	0.0000 
1825.615	5.2625	3.3673	12.6727	0.0000 
1825.635	5.3064	3.2959	12.5958	0.0000 
1825.635	5.3448	3.2355	12.5189	0.0000 
1825.657	5.3943	3.1970	12.4365	0.0000 
1825.663	5.4327	3.1641	12.3651	0.0000 
1825.688	5.4492	3.1421	12.3047	0.0000 
1825.711	5.4547	3.1256	12.2388	0.0000 
1825.815	5.4657	3.1256	12.1674	0.0000 
1825.833	5.4712	3.1421	12.0905	0.0000 
1825.834	5.4822	3.1805	11.9971	0.0000 
1825.834	5.4877	3.2190	11.9147	0.0000 
1825.834	5.4822	3.2465	11.8433	0.0000 
1825.834	5.4767	3.2739	11.7609	0.0000 
1825.842	5.4877	3.2959	11.6949	0.0000 
1825.869	5.4877	3.3124	11.6345	0.0000 
1825.889	5.4822	3.3453	11.5741	0.0000 
1825.910	5.4767	3.4167	11.5137	0.0000 
1825.934	5.4767	3.4937	11.4752	0.0000 
1826.032	5.4877	3.5651	11.4752	0.0000 
1826.051	5.4932	3.6475	11.4697	0.0000 
1826.051	5.4987	3.7244	11.4587	0.0000 
1826.052	5.5042	3.8013	11.4478	0.0000 
1826.052	5.5206	3.8617	11.4587	0.0000 
1826.071	5.5426	3.9001	11.4862	0.0000 
1826.093	5.5536	3.9441	11.4972	0.0000 
1826.195	5.5701	3.9935	11.4917	0.0000 
1826.195	5.5920	4.0320	11.5082	0.0000 
1826.211	5.6140	4.0540	11.5247	0.0000 
1826.211	5.6305	4.0704	11.5356	0.0000 
1826.212	5.6415	4.0759	11.5576	0.0000 
1826.212	5.6580	4.0704	11.5741	0.0000 
1826.212	5.6744	4.0594	11.6016	0.0000 
1826.235	5.6909	4.0540	11.6290	0.0000 
1826.255	5.7129	4.0649	11.6400	0.0000 
1826.261	5.7349	4.0759	11.6510	0.0000 
1826.279	5.7568	4.0814	11.6565	0.0000 
1826.299	5.7568	4.0924	11.6510	0.0000 
1826.405	5.7513	4.1089	11.6400	0.0000 
1826.422	5.7349	4.1199	11.6290	0.0000 
1826.422	5.7239	4.1254	11.6345	0.0000 
1826.422	5.7184	4.1254	11.6455	0.0000 
1826.422	5.7074	4.1199	11.6565	0.0000 
1826.443	5.6964	4.1199	11.6675	0.0000 
1826.450	5.6799	4.1254	11.6675	0.0000 
1826.473	5.6635	4.1199	11.6675	0.0000 
1826.489	5.6525	4.1254	11.6730	0.0000 
1826.510	5.6470	4.1199	11.6675	0.0000 
1826.518	5.6415	4.1144	11.6730	0.0000 
1826.635	5.6305	4.1034	11.6949	0.0000 
1826.652	5.6030	4.0924	11.7224	0.0000 
1826.653	5.5756	4.1034	11.7334	0.0000 
1826.653	5.5426	4.1144	11.7389	0.0000 
1826.653	5.5096	4.1254	11.7279	0.0000 
1826.653	5.4712	4.1364	11.7334	0.0000 
1826.676	5.4437	4.1583	11.7444	0.0000 
1826.684	5.4327	4.1748	11.7609	0.0000 
1826.788	5.4382	4.1803	11.7773	0.0000 
1826.807	5.4272	4.1858	11.7883	0.0000 
1826.808	5.4108	4.2023	11.7883	0.0000 
1826.808	5.3998	4.2297	11.7828	0.0000 
1826.809	5.3943	4.2517	11.7719	0.0000 
1826.827	5.3888	4.2627	11.7773	0.0000 
1826.828	5.3833	4.2627	11.7883	0.0000 
1826.850	5.3833	4.2572	11.8048	0.0000 
1826.872	5.3723	4.2517	11.8048	0.0000 
1826.894	5.3503	4.2517	11.7938	0.0000 
1826.902	5.3339	4.2572	11.7883	0.0000 
1827.024	5.3394	4.2517	11.8048	0.0000 
1827.044	5.3448	4.2517	11.8213	0.0000 
1827.045	5.3503	4.2572	11.8323	0.0000 
1827.045	5.3613	4.2572	11.8488	0.0000 
1827.046	5.3723	4.2627	11.8433	0.0000 
1827.046	5.3778	4.2737	11.8213	0.0000 
1827.064	5.3613	4.2847	11.7993	0.0000 
1827.072	5.3448	4.2902	11.7993	0.0000 
1827.192	5.3339	4.2792	11.8158	0.0000 
1827.210	5.3284	4.2682	11.8323	0.0000 
1827.210	5.3174	4.2627	11.8378	0.0000 
1827.210	5.3064	4.2627	11.8433	0.0000 
1827.210	5.3119	4.2572	11.8762	0.0000 
1827.210	5.3229	4.2572	11.9147	0.0000 
1827.210	5.3284	4.2572	11.9476	0.0000 
1827.218	5.3339	4.2627	11.9641	0.0000 
1827.236	5.3394	4.2627	11.9806	0.0000 
1827.258	5.3394	4.2627	11.9971	0.0000 
1827.283	5.3448	4.2737	12.0026	0.0000 
1827.404	5.3613	4.2792	12.0135	0.0000 
1827.410	5.3833	4.2847	12.0410	0.0000 
1827.410	5.4108	4.2902	12.0630	0.0000 
1827.410	5.4382	4.3011	12.0795	0.0000 
1827.410	5.4602	4.3011	12.0850	0.0000 
1827.410	5.4712	4.3066	12.0850	0.0000 
1827.417	5.4767	4.3176	12.0850	0.0000 
1827.444	5.4877	4.3176	12.0959	0.0000 
1827.464	5.5042	4.3176	12.1069	0.0000 
1827.491	5.5261	4.3176	12.1179	0.0000 
1827.502	5.5481	4.3176	12.1344	0.0000 
1827.520	5.5591	4.3176	12.1399	0.0000 
1827.541	5.5646	4.3121	12.1289	0.0000 
1827.563	5.5756	4.2957	12.1344	0.0000 
1827.571	5.5865	4.2792	12.1344	0.0000 
1827.662	5.6030	4.2572	12.1509	0.0000 
1827.676	5.6305	4.2352	12.1729	0.0000 
1827.676	5.6415	4.2133	12.1838	0.0000 
1827.677	5.6580	4.2023	12.1893	0.0000 
1827.684	5.6799	4.1968	12.1893	0.0000 
1827.695	5.7019	4.1803	12.1948	0.0000 
1827.717	5.7184	4.1638	12.1948	0.0000 
1827.792	5.7294	4.1473	12.1893	0.0000 
1827.803	5.7349	4.1364	12.1893	0.0000 
1827.803	5.7568	4.1144	12.2333	0.0000 
1827.803	5.7788	4.0979	12.2772	0.0000 
1827.809	5.7953	4.0924	12.2882	0.0000 
1827.829	5.8063	4.1034	12.2882	0.0000 
1827.849	5.8173	4.1144	12.2992	0.0000 
1827.869	5.8282	4.1144	12.3212	0.0000 
1827.891	5.8557	4.1144	12.3431	0.0000 
1827.967	5.8832	4.1144	12.3706	0.0000 
1827.980	5.9161	4.1089	12.4036	0.0000 
1827.980	5.9436	4.0979	12.4365	0.0000 
1827.980	5.9601	4.0869	12.4530	0.0000 
1827.988	5.9821	4.0814	12.4695	0.0000 
1828.008	6.0150	4.0759	12.4915	0.0000 
1828.028	6.0315	4.0759	12.5079	0.0000 
1828.048	6.0425	4.0704	12.5299	0.0000 
1828.069	6.0699	4.0649	12.5574	0.0000 
1828.088	6.0974	4.0594	12.5958	0.0000 
1828.110	6.1194	4.0540	12.6123	0.0000 
1828.204	6.1249	4.0485	12.6288	0.0000 
1828.210	6.1359	4.0430	12.6453	0.0000 
1828.210	6.1469	4.0320	12.6727	0.0000 
1828.210	6.1578	4.0210	12.7002	0.0000 
1828.211	6.1688	4.0045	12.7277	0.0000 
1828.236	6.1798	3.9880	12.7496	0.0000 
1828.246	6.1908	3.9716	12.7881	0.0000 
1828.266	6.2128	3.9551	12.8210	0.0000 
1828.286	6.2347	3.9496	12.8540	0.0000 
1828.306	6.2567	3.9441	12.8760	0.0000 
1828.380	6.2842	3.9276	12.8979	0.0000 
1828.392	6.3116	3.9166	12.9199	0.0000 
1828.392	6.3336	3.9056	12.9364	0.0000 
1828.398	6.3556	3.8727	12.9639	0.0000 
1828.412	6.3776	3.8562	12.9913	0.0000 
1828.434	6.3940	3.8452	13.0023	0.0000 
1828.455	6.4160	3.8452	13.0078	0.0000 
1828.467	6.4490	3.8452	13.0188	0.0000 
1828.557	6.4929	3.8507	13.0188	0.0000 
1828.572	6.5259	3.8617	13.0133	0.0000 
1828.572	6.5479	3.8782	13.0023	0.0000 
1828.572	6.5753	3.8947	12.9968	0.0000 
1828.580	6.6028	3.9111	12.9913	0.0000 
1828.591	6.6193	3.9166	12.9803	0.0000 
1828.612	6.6357	3.9276	12.9639	0.0000 
1828.634	6.6412	3.9386	12.9364	0.0000 
1828.654	6.6467	3.9496	12.9144	0.0000 
1828.666	6.6522	3.9661	12.8925	0.0000 
1828.684	6.6577	3.9825	12.8815	0.0000 
1828.704	6.6742	3.9935	12.8815	0.0000 
1828.791	6.6852	3.9990	12.8760	0.0000 
1828.797	6.6962	4.0045	12.8595	0.0000 
1828.797	6.6962	4.0045	12.8485	0.0000 
1828.797	6.7017	4.0045	12.8375	0.0000 
1828.804	6.7126	3.9990	12.8375	0.0000 
1828.824	6.7291	3.9935	12.8430	0.0000 
1828.844	6.7401	3.9825	12.8485	0.0000 
1828.867	6.7456	3.9716	12.8375	0.0000 
1828.891	6.7346	3.9606	12.8156	0.0000 
1828.912	6.7236	3.9496	12.8046	0.0000 
1828.924	6.7236	3.9331	12.8046	0.0000 
1828.943	6.7236	3.9056	12.8046	0.0000 
1829.027	6.7181	3.8837	12.7991	0.0000 
1829.034	6.7017	3.8562	12.7991	0.0000 
1829.034	6.6797	3.8342	12.8101	0.0000 
1829.034	6.6632	3.8177	12.7991	0.0000 
1829.042	6.6522	3.8068	12.7881	0.0000 
1829.062	6.6302	3.7958	12.7826	0.0000 
1829.082	6.6083	3.7958	12.7716	0.0000 
1829.104	6.6028	3.8013	12.7606	0.0000 
1829.126	6.5973	3.8013	12.7551	0.0000