StartTime: 2018-11-15 20:11:00.594
Time(s)	AngleX(deg)	AngleY(deg)	AngleZ(deg)	T(Â°) 
1969.851	10.4315	20.3082	-4.7900	0.0000 
1969.872	10.3821	20.3137	-4.9438	0.0000 
1969.892	10.3326	20.3247	-5.1086	0.0000 
1969.960	10.3436	20.3302	-5.2350	0.0000 
1969.970	10.3491	20.3082	-5.3503	0.0000 
1969.970	10.3107	20.2972	-5.5151	0.0000 
1969.970	10.2832	20.3082	-5.6909	0.0000 
1969.991	10.2612	20.3082	-5.8392	0.0000 
1970.004	10.2557	20.3137	-5.9930	0.0000 
1970.024	10.2448	20.3247	-6.1743	0.0000 
1970.043	10.2173	20.3357	-6.3721	0.0000 
1970.124	10.1953	20.3467	-6.5588	0.0000 
1970.130	10.1459	20.3577	-6.7346	0.0000 
1970.130	10.1019	20.3851	-6.9159	0.0000 
1970.130	10.0470	20.4291	-7.1136	0.0000 
1970.143	9.9866	20.4895	-7.3279	0.0000 
1970.163	9.8987	20.5609	-7.5751	0.0000 
1970.184	9.8108	20.6598	-7.8333	0.0000 
1970.203	9.7284	20.7751	-8.0859	0.0000 
1970.222	9.6515	20.8795	-8.3331	0.0000 
1970.243	9.5636	20.9619	-8.5803	0.0000 
1970.267	9.4647	21.0278	-8.8440	0.0000 
1970.335	9.3658	21.0938	-9.0967	0.0000 
1970.349	9.2834	21.1432	-9.2999	0.0000 
1970.349	9.1791	21.1432	-9.4537	0.0000 
1970.349	9.0747	21.1267	-9.6075	0.0000 
1970.366	8.9758	21.1157	-9.7559	0.0000 
1970.389	8.8989	21.1047	-9.8932	0.0000 
1970.409	8.8055	21.0773	-10.0305	0.0000 
1970.423	8.7012	21.0443	-10.1843	0.0000 
1970.442	8.5968	21.0059	-10.3217	0.0000 
1970.461	8.5089	20.9290	-10.3986	0.0000 
1970.481	8.4705	20.8301	-10.4041	0.0000 
1970.559	8.4485	20.7202	-10.3876	0.0000 
1970.565	8.3990	20.6433	-10.4041	0.0000 
1970.565	8.3276	20.5994	-10.4645	0.0000 
1970.566	8.2343	20.5554	-10.5194	0.0000 
1970.581	8.1464	20.5060	-10.5798	0.0000 
1970.600	8.0640	20.4510	-10.6512	0.0000 
1970.620	7.9816	20.3796	-10.7281	0.0000 
1970.640	7.8827	20.3027	-10.7941	0.0000 
1970.660	7.8333	20.2423	-10.8270	0.0000 
1970.680	7.8333	20.1654	-10.7831	0.0000 
1970.699	7.8387	20.0885	-10.7062	0.0000 
1970.780	7.8607	20.0336	-10.6293	0.0000 
1970.787	7.8882	19.9896	-10.5249	0.0000 
1970.787	7.9706	19.9402	-10.3711	0.0000 
1970.787	8.0859	19.8523	-10.1514	0.0000 
1970.799	8.1903	19.7534	-9.9426	0.0000 
1970.819	8.3002	19.6765	-9.7449	0.0000 
1970.838	8.4375	19.6106	-9.5087	0.0000 
1970.858	8.6517	19.5502	-9.2120	0.0000 
1970.878	8.9539	19.4952	-8.8824	0.0000 
1970.942	9.2615	19.4183	-8.5693	0.0000 
1970.951	9.5251	19.3579	-8.2947	0.0000 
1970.952	9.7394	19.3799	-8.1024	0.0000 
1970.958	9.9481	19.4623	-7.9486	0.0000 
1970.978	10.1624	19.5007	-7.8058	0.0000 
1970.999	10.3381	19.4568	-7.6300	0.0000 
1971.019	10.5084	19.3799	-7.3883	0.0000 
1971.041	10.7227	19.2975	-7.0807	0.0000 
1971.061	10.9698	19.2206	-6.7566	0.0000 
1971.083	11.2006	19.1656	-6.5039	0.0000 
1971.163	11.3489	19.1052	-6.3336	0.0000 
1971.169	11.4642	19.0338	-6.1798	0.0000 
1971.169	11.5631	18.9624	-5.9985	0.0000 
1971.169	11.6565	18.9240	-5.8173	0.0000 
1971.176	11.7554	18.9020	-5.6250	0.0000 
1971.197	11.8597	18.8580	-5.4108	0.0000 
1971.216	11.9257	18.8141	-5.2240	0.0000 
1971.240	11.9806	18.8141	-5.0757	0.0000 
1971.259	12.0465	18.8361	-4.9384	0.0000 
1971.282	12.1069	18.8470	-4.8120	0.0000 
1971.302	12.1344	18.8745	-4.7571	0.0000 
1971.324	12.1234	18.9075	-4.7406	0.0000 
1971.387	12.0575	18.9514	-4.7351	0.0000 
1971.396	11.9916	19.0118	-4.7406	0.0000 
1971.396	11.9366	19.0723	-4.7351	0.0000 
1971.402	11.9037	19.0942	-4.7186	0.0000 
1971.419	11.8268	19.0942	-4.7241	0.0000 
1971.439	11.7004	19.0833	-4.7626	0.0000 
1971.463	11.5576	19.0833	-4.8340	0.0000 
1971.484	11.4697	19.0778	-4.8834	0.0000 
1971.504	11.4148	19.0613	-4.9219	0.0000 
1971.517	11.3818	19.0503	-4.9768	0.0000 
1971.535	11.3379	19.0283	-5.0647	0.0000 
1971.606	11.2775	19.0173	-5.1801	0.0000 
1971.612	11.2555	19.0448	-5.3174	0.0000 
1971.612	11.2665	19.0833	-5.4437	0.0000 
1971.618	11.3049	19.1327	-5.5591	0.0000 
1971.636	11.3544	19.1931	-5.6854	0.0000 
1971.659	11.4093	19.2535	-5.8557	0.0000 
1971.680	11.4752	19.3085	-6.0809	0.0000 
1971.701	11.5137	19.3195	-6.3501	0.0000 
1971.769	11.5137	19.2700	-6.6193	0.0000 
1971.778	11.5796	19.1272	-6.7676	0.0000 
1971.778	11.7059	18.9404	-6.7841	0.0000 
1971.779	11.8488	18.7866	-6.7621	0.0000 
1971.801	11.9476	18.7372	-6.8500	0.0000 
1971.823	11.9861	18.7866	-7.0752	0.0000 
1971.833	12.0026	18.8745	-7.3938	0.0000 
1971.853	12.0410	18.9624	-7.7289	0.0000 
1971.873	12.0465	19.0338	-8.0585	0.0000 
1971.893	11.9696	19.0613	-8.3826	0.0000 
1971.913	11.8817	19.0503	-8.6682	0.0000 
1971.990	11.8103	18.9844	-8.8989	0.0000 
1971.996	11.7389	18.8910	-9.1132	0.0000 
1971.996	11.6675	18.7756	-9.2889	0.0000 
1971.996	11.5576	18.6548	-9.4153	0.0000 
1972.020	11.4148	18.5559	-9.4922	0.0000 
1972.033	11.2445	18.4955	-9.5251	0.0000 
1972.052	11.0632	18.4515	-9.5526	0.0000 
1972.072	10.8710	18.4296	-9.6075	0.0000 
1972.092	10.6787	18.4351	-9.7009	0.0000 
1972.112	10.4755	18.4460	-9.8273	0.0000 
1972.132	10.2612	18.4460	-9.9481	0.0000 
1972.202	10.0909	18.4296	-10.0360	0.0000 
1972.211	9.9261	18.4186	-10.1349	0.0000 
1972.212	9.7668	18.4570	-10.2722	0.0000 
1972.218	9.6075	18.5229	-10.3931	0.0000 
1972.234	9.4318	18.6053	-10.4810	0.0000 
1972.254	9.2780	18.6768	-10.5029	0.0000 
1972.277	9.1846	18.7207	-10.4810	0.0000 
1972.300	9.1296	18.7207	-10.3931	0.0000 
1972.363	9.1461	18.6713	-10.2393	0.0000 
1972.373	9.2010	18.5669	-10.0195	0.0000 
1972.374	9.2780	18.4735	-9.8053	0.0000 
1972.380	9.3658	18.4241	-9.6295	0.0000 
1972.395	9.4702	18.4076	-9.4427	0.0000 
1972.417	9.6460	18.4186	-9.1956	0.0000 
1972.439	9.8657	18.4296	-8.8770	0.0000 
1972.450	10.0909	18.4021	-8.4979	0.0000 
1972.470	10.3052	18.3582	-8.0859	0.0000 
1972.495	10.5249	18.3527	-7.6575	0.0000 
1972.512	10.7446	18.4076	-7.2345	0.0000 
1972.583	10.9204	18.4845	-6.8829	0.0000 
1972.589	11.0193	18.5724	-6.6687	0.0000 
1972.589	11.0962	18.6273	-6.5094	0.0000 
1972.589	11.2225	18.5999	-6.2512	0.0000 
1972.619	11.3873	18.4570	-5.9216	0.0000 
1972.629	11.4752	18.3142	-5.6964	0.0000 
1972.649	11.4917	18.2977	-5.6030	0.0000 
1972.668	11.4148	18.4076	-5.6140	0.0000 
1972.688	11.2830	18.5559	-5.6964	0.0000 
1972.708	11.1511	18.6713	-5.8118	0.0000 
1972.728	11.0413	18.7262	-5.9216	0.0000 
1972.804	10.9204	18.7372	-6.0535	0.0000 
1972.810	10.7611	18.7427	-6.2183	0.0000 
1972.810	10.5743	18.7646	-6.4105	0.0000 
1972.810	10.4260	18.8031	-6.5973	0.0000 
1972.835	10.2777	18.8251	-6.8005	0.0000 
1972.856	10.1294	18.8800	-7.0642	0.0000 
1972.876	9.9866	18.9459	-7.3499	0.0000 
1972.888	9.8328	18.9899	-7.5806	0.0000 
1972.908	9.6899	19.0228	-7.7893	0.0000 
1972.928	9.5581	19.0668	-8.0035	0.0000 
1972.947	9.4482	19.1107	-8.2397	0.0000 
1973.021	9.3274	19.1437	-8.5034	0.0000 
1973.028	9.2450	19.1492	-8.7726	0.0000 
1973.028	9.1956	19.1602	-9.0472	0.0000 
1973.028	9.1736	19.1711	-9.3494	0.0000 
1973.052	9.2010	19.1711	-9.6735	0.0000 
1973.073	9.2615	19.1766	-10.0360	0.0000 
1973.095	9.3658	19.1931	-10.4150	0.0000 
1973.106	9.4263	19.1821	-10.8160	0.0000 
1973.185	9.5251	19.0723	-11.1456	0.0000 
1973.195	9.6625	18.9130	-11.3983	0.0000 
1973.195	9.7943	18.6932	-11.6125	0.0000 
1973.195	10.0031	18.4570	-11.7279	0.0000 
1973.207	10.1404	18.3417	-11.8597	0.0000 
1973.226	10.1843	18.3472	-12.0575	0.0000 
1973.246	10.1898	18.4351	-12.3102	0.0000 
1973.266	10.1624	18.5779	-12.6727	0.0000 
1973.286	10.0854	18.7042	-13.1451	0.0000 
1973.305	9.9371	18.7537	-13.6670	0.0000 
1973.327	9.7943	18.7482	-14.1229	0.0000 
1973.408	9.6625	18.6823	-14.4360	0.0000 
1973.414	9.5966	18.5559	-14.6173	0.0000 
1973.414	9.5471	18.4241	-14.7437	0.0000 
1973.415	9.4922	18.3472	-14.9030	0.0000 
1973.424	9.3494	18.3307	-15.1501	0.0000 
1973.445	9.1406	18.3582	-15.4742	0.0000 
1973.464	8.9264	18.4076	-15.7654	0.0000 
1973.484	8.7891	18.4351	-15.9357	0.0000 
1973.504	8.7341	18.4296	-15.9906	0.0000 
1973.526	8.7122	18.4021	-15.9796	0.0000 
1973.549	8.6682	18.3636	-15.9412	0.0000 
1973.628	8.6133	18.3582	-15.8643	0.0000 
1973.635	8.5583	18.3911	-15.7764	0.0000 
1973.635	8.4979	18.4515	-15.6610	0.0000 
1973.635	8.4430	18.5120	-15.4962	0.0000 
1973.643	8.4375	18.5559	-15.2380	0.0000 
1973.663	8.4540	18.5834	-14.9139	0.0000 
1973.683	8.5034	18.6163	-14.5514	0.0000 
1973.703	8.5693	18.6768	-14.2108	0.0000 
1973.724	8.6243	18.7592	-13.9087	0.0000 
1973.793	8.6957	18.8416	-13.6066	0.0000 
1973.803	8.8770	18.8416	-13.2001	0.0000 
1973.804	9.1241	18.8141	-12.7057	0.0000 
1973.810	9.3658	18.8525	-12.1893	0.0000 
1973.826	9.4647	18.9240	-11.8213	0.0000 
1973.848	9.4702	18.9844	-11.5356	0.0000 
1973.869	9.4977	19.0338	-11.2115	0.0000 
1973.883	9.5746	19.0448	-10.8105	0.0000 
1973.901	9.6460	19.0173	-10.4205	0.0000 
1973.921	9.6625	19.0283	-10.1404	0.0000 
1973.941	9.6405	19.1052	-9.9261	0.0000 
1974.017	9.6075	19.1711	-9.7339	0.0000 
1974.023	9.6075	19.2261	-9.5416	0.0000 
1974.023	9.6625	19.2535	-9.2999	0.0000 
1974.023	9.7394	19.2426	-9.0088	0.0000 
1974.047	9.7888	19.1986	-8.6902	0.0000 
1974.061	9.7833	19.1492	-8.4265	0.0000 
1974.081	9.7559	19.1327	-8.2507	0.0000 
1974.100	9.7119	19.1656	-8.1903	0.0000 
1974.120	9.6844	19.2316	-8.1628	0.0000 
1974.140	9.6680	19.3195	-8.1354	0.0000 
1974.160	9.6680	19.4238	-8.0804	0.0000 
1974.240	9.6735	19.5227	-7.9761	0.0000 
1974.246	9.6954	19.6106	-7.8552	0.0000 
1974.246	9.7009	19.6820	-7.7509	0.0000 
1974.246	9.6954	19.7754	-7.7014	0.0000 
1974.260	9.6570	19.8688	-7.7179	0.0000 
1974.281	9.6130	19.9512	-7.7563	0.0000 
1974.300	9.5581	19.9951	-7.8003	0.0000 
1974.320	9.5251	20.0171	-7.8442	0.0000 
1974.340	9.5526	20.0446	-7.8772	0.0000 
1974.402	9.6075	20.0665	-7.9156	0.0000 
1974.412	9.6680	20.0885	-7.9926	0.0000 
1974.413	9.7119	20.1160	-8.0859	0.0000 
1974.419	9.7229	20.1324	-8.1903	0.0000 
1974.439	9.6954	20.1379	-8.3167	0.0000 
1974.459	9.6570	20.1105	-8.4540	0.0000 
1974.479	9.6130	20.0226	-8.5803	0.0000 
1974.500	9.5306	19.9182	-8.7341	0.0000 
1974.519	9.4263	19.8029	-8.8989	0.0000 
1974.541	9.3549	19.6985	-9.0308	0.0000 
1974.623	9.3109	19.6271	-9.1351	0.0000 
1974.629	9.3219	19.5886	-9.2395	0.0000 
1974.629	9.3494	19.5996	-9.3713	0.0000 
1974.629	9.4043	19.6765	-9.5581	0.0000 
1974.638	9.4757	19.7864	-9.7449	0.0000 
1974.658	9.5361	19.8962	-9.9042	0.0000 
1974.677	9.5691	19.9896	-10.0580	0.0000 
1974.699	9.5416	20.0391	-10.2283	0.0000 
1974.719	9.4977	20.0500	-10.3876	0.0000 
1974.742	9.4647	19.9951	-10.5194	0.0000 
1974.763	9.4537	19.8907	-10.5908	0.0000 
1974.844	9.4482	19.7754	-10.6073	0.0000 
1974.850	9.4153	19.7040	-10.6073	0.0000 
1974.850	9.3164	19.6655	-10.6128	0.0000 
1974.850	9.2175	19.6490	-10.6293	0.0000 
1974.857	9.1296	19.6326	-10.6622	0.0000 
1974.876	9.0472	19.6216	-10.7062	0.0000 
1974.897	8.9648	19.6326	-10.7666	0.0000 
1974.919	8.8440	19.6381	-10.7996	0.0000 
1974.941	8.7286	19.6436	-10.8105	0.0000 
1975.006	8.6243	19.6600	-10.8105	0.0000 
1975.016	8.5364	19.6820	-10.8160	0.0000 
1975.016	8.4375	19.6985	-10.8270	0.0000 
1975.022	8.3606	19.7260	-10.8490	0.0000 
1975.038	8.2947	19.7479	-10.8325	0.0000 
1975.060	8.2617	19.7589	-10.7721	0.0000 
1975.081	8.2782	19.7919	-10.7062	0.0000 
1975.105	8.3167	19.8413	-10.6897	0.0000 
1975.116	8.3771	19.8962	-10.7062	0.0000 
1975.135	8.4650	19.9512	-10.7172	0.0000 
1975.155	8.5968	19.9896	-10.6952	0.0000 
1975.228	8.7067	20.0006	-10.6348	0.0000 
1975.234	8.8220	20.0061	-10.5634	0.0000 
1975.234	8.9594	20.0281	-10.4755	0.0000 
1975.240	9.0637	20.0995	-10.4041	0.0000 
1975.261	9.1187	20.2258	-10.4041	0.0000 
1975.282	9.1296	20.3577	-10.4865	0.0000 
1975.302	9.1846	20.4071	-10.4974	0.0000 
1975.314	9.2834	20.3467	-10.3656	0.0000 
1975.333	9.4043	20.2423	-10.1678	0.0000 
1975.359	9.5526	20.1709	-10.0470	0.0000 
1975.374	9.6075	20.1819	-10.0635	0.0000 
1975.448	9.5966	20.2588	-10.1569	0.0000 
1975.454	9.5966	20.3192	-10.2228	0.0000 
1975.454	9.6021	20.3522	-10.2557	0.0000 
1975.454	9.5966	20.4126	-10.3491	0.0000 
1975.479	9.5306	20.4456	-10.5029	0.0000 
1975.502	9.4208	20.4565	-10.7062	0.0000 
1975.512	9.2505	20.4840	-10.9644	0.0000 
1975.533	9.0912	20.5389	-11.2335	0.0000 
1975.552	9.0088	20.6104	-11.4423	0.0000 
1975.614	8.9539	20.6873	-11.6235	0.0000 
1975.624	8.8879	20.8026	-11.8488	0.0000 
1975.624	8.8165	20.9509	-12.1014	0.0000 
1975.633	8.7616	21.1102	-12.3376	0.0000 
1975.652	8.7231	21.2585	-12.5409	0.0000 
1975.673	8.7067	21.4124	-12.7386	0.0000 
1975.693	8.6572	21.5662	-12.9474	0.0000 
1975.712	8.5474	21.6870	-13.1781	0.0000 
1975.734	8.4430	21.7859	-13.4033	0.0000 
1975.753	8.3606	21.8573	-13.6230	0.0000 
1975.833	8.3221	21.9177	-13.8373	0.0000 
1975.840	8.2947	21.9287	-14.0460	0.0000 
1975.840	8.2892	21.9232	-14.2438	0.0000 
1975.840	8.3386	21.9232	-14.3976	0.0000 
1975.851	8.3826	21.9177	-14.5349	0.0000 
1975.871	8.4265	21.9177	-14.6777	0.0000 
1975.891	8.4210	21.8958	-14.8590	0.0000 
1975.911	8.4100	21.8188	-15.0293	0.0000 
1975.931	8.4155	21.6925	-15.1666	0.0000 
1975.952	8.3826	21.4948	-15.2435	0.0000 
1975.975	8.4650	21.2750	-15.1501	0.0000 
1976.055	8.5583	21.1377	-14.9854	0.0000 
1976.061	8.5748	21.1157	-14.8975	0.0000 
1976.061	8.5968	21.1761	-14.8810	0.0000 
1976.061	8.6572	21.2585	-14.9249	0.0000 
1976.070	8.7286	21.3135	-14.9744	0.0000 
1976.090	8.7616	21.3190	-15.0293	0.0000 
1976.112	8.7671	21.2805	-15.0513	0.0000 
1976.134	8.7671	21.2256	-15.0128	0.0000 
1976.155	8.7946	21.1487	-14.9359	0.0000 
1976.222	8.8275	21.0773	-14.8041	0.0000 
1976.232	8.8770	21.0388	-14.6832	0.0000 
1976.233	8.8989	21.0553	-14.6063	0.0000 
1976.239	8.8330	21.1047	-14.5679	0.0000 
1976.253	8.7341	21.1542	-14.5239	0.0000 
1976.275	8.6682	21.1707	-14.4470	0.0000 
1976.297	8.6298	21.1322	-14.3427	0.0000 
1976.309	8.5858	21.0608	-14.2493	0.0000 
1976.328	8.5254	20.9564	-14.1504	0.0000 
1976.349	8.4430	20.8356	-14.0240	0.0000 
1976.368	8.3496	20.7092	-13.8593	0.0000 
1976.443	8.2617	20.6104	-13.7000	0.0000 
1976.450	8.1793	20.5334	-13.5461	0.0000 
1976.450	8.0859	20.4785	-13.3813	0.0000 
1976.450	8.0200	20.4236	-13.1561	0.0000 
1976.474	7.9926	20.3632	-12.8540	0.0000 
1976.496	8.0200	20.2808	-12.4695	0.0000 
1976.508	8.0750	20.1929	-12.0465	0.0000 
1976.527	8.1519	20.1050	-11.6180	0.0000 
1976.547	8.2562	20.0116	-11.1731	0.0000 
1976.567	8.4045	19.9237	-10.7062	0.0000 
1976.587	8.5419	19.8303	-10.2118	0.0000 
1976.660	8.6902	19.7479	-9.6844	0.0000 
1976.666	8.8660	19.6765	-9.1187	0.0000 
1976.666	9.0143	19.6106	-8.5309	0.0000 
1976.672	9.1791	19.5392	-7.9431	0.0000 
1976.691	9.3439	19.5502	-7.3608	0.0000 
1976.713	9.4153	19.6436	-6.8500	0.0000 
1976.726	9.4592	19.7314	-6.3336	0.0000 
1976.746	9.5087	19.7479	-5.7129	0.0000 
1976.765	9.5471	19.7150	-5.0208	0.0000 
1976.785	9.6185	19.7369	-4.3945	0.0000 
1976.805	9.6899	19.8578	-3.9111	0.0000 
1976.883	9.7119	20.0171	-3.5156	0.0000 
1976.890	9.7119	20.1544	-3.1531	0.0000 
1976.890	9.7229	20.2698	-2.7960	0.0000 
1976.890	9.7614	20.3632	-2.4390	0.0000 
1976.905	9.7668	20.4126	-2.1313	0.0000 
1976.924	9.6954	20.4730	-1.9391	0.0000 
1976.945	9.6075	20.5444	-1.8018	0.0000 
1976.965	9.5361	20.6049	-1.6699	0.0000 
1976.985	9.4812	20.6708	-1.5546	0.0000 
1977.046	9.4702	20.7587	-1.4392	0.0000 
1977.056	9.4757	20.8521	-1.3019	0.0000 
1977.056	9.4757	20.9399	-1.1646	0.0000 
1977.065	9.4757	21.0388	-1.0492	0.0000 
1977.085	9.4427	21.1377	-0.9723	0.0000 
1977.104	9.3604	21.2201	-0.9668	0.0000 
1977.124	9.2505	21.2970	-1.0162	0.0000 
1977.144	9.1846	21.3354	-1.0602	0.0000 
1977.164	9.1626	21.3135	-1.0547	0.0000 
1977.186	9.1791	21.2531	-1.0107	0.0000 
1977.277	9.2230	21.1926	-0.9668	0.0000 
1977.284	9.2889	21.1487	-0.9338	0.0000 
1977.284	9.3439	21.1102	-0.9229	0.0000 
1977.284	9.4318	21.0938	-0.9229	0.0000 
1977.284	9.5416	21.0828	-0.9393	0.0000 
1977.308	9.6240	21.0608	-0.9998	0.0000 
1977.330	9.6790	21.0114	-1.1041	0.0000 
1977.352	9.7174	20.9235	-1.2415	0.0000 
1977.363	9.7119	20.7751	-1.4172	0.0000 
1977.439	9.7559	20.5115	-1.5161	0.0000 
1977.445	9.8547	20.2533	-1.5381	0.0000 
1977.445	9.9316	20.0775	-1.5546	0.0000 
1977.446	10.0031	20.0336	-1.6370	0.0000 
1977.470	10.0250	20.0885	-1.8073	0.0000 
1977.489	9.9536	20.1929	-2.0599	0.0000 
1977.506	9.8383	20.2698	-2.3456	0.0000 
1977.522	9.7394	20.2423	-2.5488	0.0000 
1977.542	9.6570	20.1105	-2.6147	0.0000 
1977.564	9.6185	19.9292	-2.5653	0.0000 
1977.586	9.6185	19.7369	-2.4390	0.0000 
1977.658	9.5856	19.5941	-2.3071	0.0000 
1977.669	9.4427	19.5502	-2.2632	0.0000 
1977.669	9.2395	19.5612	-2.2906	0.0000 
1977.669	8.9978	19.5831	-2.3511	0.0000 
1977.690	8.7561	19.5776	-2.4115	0.0000 
1977.701	8.5693	19.5117	-2.4280	0.0000 
1977.721	8.4210	19.4238	-2.3785	0.0000 
1977.740	8.3551	19.3085	-2.2137	0.0000 
1977.760	8.3057	19.1821	-1.9830	0.0000 
1977.781	8.2617	19.0833	-1.7194	0.0000 
1977.801	8.2233	19.0118	-1.4447	0.0000 
1977.877	8.1738	18.9624	-1.1481	0.0000 
1977.883	8.1573	18.9240	-0.8020	0.0000 
1977.883	8.1683	18.9130	-0.3900	0.0000 
1977.883	8.2452	18.9130	0.0879	0.0000 
1977.907	8.3716	18.9130	0.6262	0.0000 
1977.920	8.5419	18.9240	1.1975	0.0000 
1977.939	8.7561	18.9459	1.7798	0.0000 
1977.959	8.9539	18.9569	2.3566	0.0000 
1977.979	9.1791	18.9185	2.9553	0.0000 
1977.999	9.3933	18.8470	3.5815	0.0000 
1978.019	9.6405	18.8086	4.2078	0.0000 
1978.096	9.8877	18.8470	4.8010	0.0000 
1978.103	10.0690	18.8910	5.3174	0.0000 
1978.103	10.2612	18.9349	5.8063	0.0000 
1978.104	10.4205	18.9679	6.3336	0.0000 
1978.127	10.5853	18.9789	6.8994	0.0000 
1978.139	10.7117	19.0063	7.3828	0.0000 
1978.158	10.7776	19.1052	7.6849	0.0000 
1978.177	10.7831	19.2535	7.8717	0.0000 
1978.198	10.7611	19.4019	7.9980	0.0000 
1978.257	10.7391	19.5172	8.0969	0.0000 
1978.267	10.7007	19.5941	8.1738	0.0000 
1978.268	10.6293	19.6655	8.1903	0.0000 
1978.277	10.5139	19.7644	8.1189	0.0000 
1978.297	10.3656	19.8907	7.9926	0.0000 
1978.317	10.2448	20.0281	7.8278	0.0000 
1978.337	10.1239	20.1709	7.6300	0.0000 
1978.357	9.9866	20.3247	7.4048	0.0000 
1978.376	9.8547	20.4895	7.1686	0.0000 
1978.396	9.7174	20.6598	6.9214	0.0000 
1978.472	9.5856	20.8246	6.6522	0.0000 
1978.483	9.4427	20.9674	6.3556	0.0000 
1978.483	9.2780	21.0883	5.9875	0.0000 
1978.483	9.0967	21.1926	5.5536	0.0000 
1978.503	8.9044	21.2476	5.1141	0.0000 
1978.524	8.7561	21.2640	4.6912	0.0000 
1978.536	8.6737	21.2695	4.2737	0.0000 
1978.556	8.6627	21.2750	3.8617	0.0000 
1978.576	8.6902	21.2750	3.4497	0.0000 
1978.596	8.7451	21.2695	3.0267	0.0000 
1978.616	8.8110	21.2531	2.6147	0.0000 
1978.690	8.8605	21.1432	2.2412	0.0000 
1978.696	8.9319	20.9619	1.8951	0.0000 
1978.696	8.9594	20.7092	1.5491	0.0000 
1978.696	9.0472	20.3796	1.2854	0.0000 
1978.722	9.1901	20.0940	1.1371	0.0000 
1978.743	9.2505	19.9347	0.9723	0.0000 
1978.755	9.2780	19.9457	0.7196	0.0000 
1978.775	9.2834	20.0391	0.4065	0.0000 
1978.795	9.2175	20.1544	0.0000	0.0000 
1978.815	9.1187	20.2313	-0.4834	0.0000 
1978.835	9.0527	20.2094	-0.9064	0.0000 
1978.909	9.0582	20.0500	-1.1426	0.0000 
1978.915	9.0967	19.8413	-1.2415	0.0000 
1978.915	9.1791	19.6490	-1.2524	0.0000 
1978.915	9.2780	19.5337	-1.2250	0.0000 
1978.940	9.3054	19.5007	-1.2415	0.0000 
1978.962	9.2285	19.5502	-1.3733	0.0000 
1978.975	9.0692	19.6436	-1.5985	0.0000 
1978.994	8.9154	19.7260	-1.8237	0.0000 
1979.070	8.7726	19.7589	-1.9995	0.0000 
1979.076	8.6682	19.7424	-2.1094	0.0000 
1979.076	8.6078	19.6875	-2.1588	0.0000 
1979.076	8.5693	19.6216	-2.1533	0.0000 
1979.100	8.5364	19.5612	-2.1039	0.0000 
1979.113	8.4979	19.5062	-2.0325	0.0000 
1979.132	8.4375	19.4952	-1.9666	0.0000 
1979.152	8.4045	19.5062	-1.8567	0.0000 
1979.172	8.4320	19.4897	-1.6315	0.0000 
1979.192	8.5419	19.4623	-1.3293	0.0000 
1979.212	8.7451	19.4238	-0.9613	0.0000 
1979.292	8.9758	19.3799	-0.5933	0.0000 
1979.298	9.2560	19.3359	-0.2197	0.0000 
1979.298	9.5306	19.2700	0.1538	0.0000 
1979.298	9.8547	19.1711	0.5823	0.0000 
1979.311	10.1788	19.0503	1.0712	0.0000 
1979.331	10.4810	18.9734	1.5601	0.0000 
1979.351	10.8160	19.0393	1.9885	0.0000 
1979.371	11.0687	19.1876	2.3236	0.0000 
1979.391	11.3708	19.3030	2.6752	0.0000 
1979.411	11.6290	19.3414	3.0487	0.0000 
1979.432	11.8158	19.3304	3.4332	0.0000 
1979.510	11.9586	19.3359	3.7683	0.0000 
1979.517	12.0520	19.4238	3.9990	0.0000 
1979.517	12.0905	19.5612	4.1199	0.0000 
1979.517	12.0575	19.6985	4.1418	0.0000 
1979.530	11.9696	19.8193	4.1309	0.0000 
1979.550	11.8927	19.9017	4.1418	0.0000 
1979.570	11.8103	19.9402	4.1583	0.0000 
1979.590	11.6840	19.9786	4.1254	0.0000 
1979.610	11.5576	20.0500	4.0210	0.0000 
1979.673	11.4532	20.1489	3.8617	0.0000 
1979.683	11.3379	20.2863	3.6420	0.0000 
1979.683	11.2170	20.4401	3.3893	0.0000 
1979.689	11.1017	20.5994	3.1256	0.0000 
1979.709	11.0028	20.7422	2.8619	0.0000 
1979.729	10.8710	20.8575	2.5653	0.0000 
1979.750	10.7117	20.9509	2.2467	0.0000 
1979.772	10.5469	21.0223	1.8896	0.0000 
1979.794	10.4041	21.0663	1.5161	0.0000 
1979.817	10.2832	21.0718	1.1316	0.0000 
1979.886	10.1953	21.0608	0.7306	0.0000 
1979.896	10.1404	21.0059	0.3516	0.0000 
1979.897	10.1624	20.9344	0.0000	0.0000 
1979.897	10.2338	20.8466	-0.2966	0.0000 
1979.919	10.3052	20.7532	-0.6152	0.0000 
1979.930	10.3271	20.6158	-0.9613	0.0000 
1979.949	10.3656	20.4016	-1.3074	0.0000 
1979.969	10.3601	20.1599	-1.7084	0.0000 
1979.988	10.3656	19.8578	-2.0325	0.0000 
1980.008	10.4974	19.6271	-2.2083	0.0000 
1980.028	10.6073	19.4952	-2.3291	0.0000 
1980.109	10.6842	19.4843	-2.5104	0.0000 
1980.116	10.6567	19.5996	-2.7960	0.0000 
1980.116	10.5414	19.7644	-3.2080	0.0000 
1980.116	10.3546	19.8633	-3.7244	0.0000 
1980.127	10.2063	19.8743	-4.1803	0.0000 
1980.147	10.1239	19.7919	-4.4495	0.0000 
1980.167	10.0854	19.6326	-4.5593	0.0000 
1980.187	10.1019	19.4843	-4.5648	0.0000 
1980.207	10.0745	19.4238	-4.5868	0.0000 
1980.227	9.9371	19.4678	-4.6967	0.0000 
1980.250	9.7614	19.5721	-4.8834	0.0000 
1980.330	9.5471	19.6820	-5.1031	0.0000 
1980.337	9.3823	19.7534	-5.2844	0.0000 
1980.337	9.2395	19.7534	-5.4108	0.0000 
1980.337	9.1571	19.7095	-5.4602	0.0000 
1980.346	9.1461	19.6271	-5.3943	0.0000 
1980.366	9.1461	19.5612	-5.2515	0.0000 
1980.386	9.1571	19.5392	-5.0702	0.0000 
1980.406	9.1571	19.5502	-4.8834	0.0000 
1980.426	9.1516	19.5941	-4.6802	0.0000 
1980.493	9.1791	19.6381	-4.4165	0.0000 
1980.501	9.2340	19.6820	-4.1034	0.0000 
1980.502	9.3384	19.7095	-3.7354	0.0000 
1980.508	9.4482	19.6985	-3.3179	0.0000 
1980.525	9.5526	19.6930	-2.9333	0.0000 
1980.545	9.7064	19.6985	-2.5598	0.0000 
1980.568	9.8877	19.6765	-2.1368	0.0000 
1980.590	10.1953	19.5886	-1.5985	0.0000 
1980.612	10.5524	19.5117	-1.0327	0.0000 
1980.625	10.9204	19.4733	-0.4779	0.0000 
1980.644	11.3873	19.4623	0.0714	0.0000 
1980.704	11.7444	19.5007	0.5383	0.0000 
1980.713	12.0685	19.5612	0.9503	0.0000 
1980.713	12.2168	19.6271	1.2854	0.0000 
1980.724	12.3322	19.6381	1.6974	0.0000 
1980.743	12.4915	19.6271	2.1313	0.0000 
1980.765	12.5848	19.6490	2.4280	0.0000 
1980.783	12.5574	19.7095	2.5269	0.0000 
1980.803	12.4365	19.7699	2.5488	0.0000 
1980.824	12.2552	19.8248	2.5433	0.0000 
1980.844	12.1069	19.8633	2.5708	0.0000 
1980.923	11.9751	19.8798	2.5928	0.0000 
1980.930	11.8268	19.9182	2.5433	0.0000 
1980.930	11.6400	19.9786	2.4225	0.0000 
1980.930	11.4203	20.0775	2.2302	0.0000 
1980.942	11.2061	20.2039	1.9885	0.0000 
1980.962	11.0248	20.3357	1.7413	0.0000 
1980.982	10.8655	20.4510	1.5051	0.0000 
1981.002	10.6897	20.5444	1.2524	0.0000 
1981.022	10.5084	20.6323	0.9778	0.0000 
1981.042	10.3381	20.7037	0.6812	0.0000 
1981.061	10.1788	20.7477	0.3735	0.0000 
1981.141	10.0470	20.7751	0.0769	0.0000 
1981.147	9.9426	20.7697	-0.1868	0.0000 
1981.148	9.9097	20.7587	-0.4230	0.0000 
1981.148	9.9207	20.7697	-0.6592	0.0000 
1981.161	9.9646	20.7916	-0.9119	0.0000 
1981.181	10.0195	20.8081	-1.1755	0.0000 
1981.202	10.0470	20.7916	-1.4722	0.0000 
1981.220	10.0635	20.7092	-1.7853	0.0000 
1981.240	10.1129	20.5499	-2.1149	0.0000 
1981.308	10.1239	20.3192	-2.4390	0.0000 
1981.318	10.2228	20.0500	-2.6093	0.0000 
1981.318	10.3546	19.8578	-2.6532	0.0000 
1981.325	10.4590	19.8193	-2.6642	0.0000 
1981.341	10.5579	19.9622	-2.7411	0.0000 
1981.361	10.5688	20.1654	-2.9004	0.0000 
1981.383	10.4700	20.2863	-3.1311	0.0000 
1981.404	10.2832	20.2863	-3.3948	0.0000 
1981.425	10.2118	20.1929	-3.5651	0.0000 
1981.449	10.2502	20.0226	-3.6035	0.0000 
1981.460	10.3052	19.8413	-3.5596	0.0000 
1981.532	10.3436	19.7314	-3.4827	0.0000 
1981.542	10.2832	19.7095	-3.4167	0.0000 
1981.542	10.1459	19.7479	-3.4003	0.0000 
1981.548	10.0085	19.7919	-3.3783	0.0000 
1981.563	9.8877	19.8248	-3.3453	0.0000 
1981.586	9.7778	19.8523	-3.3069	0.0000 
1981.607	9.6790	19.8578	-3.2465	0.0000 
1981.619	9.6021	19.8413	-3.1366	0.0000 
1981.639	9.5911	19.7809	-2.9059	0.0000 
1981.659	9.6185	19.6985	-2.6257	0.0000 
1981.678	9.6185	19.6545	-2.3840	0.0000 
1981.744	9.6021	19.6600	-2.1698	0.0000 
1981.753	9.5966	19.6930	-1.8842	0.0000 
1981.753	9.6295	19.7205	-1.5216	0.0000 
1981.760	9.6954	19.7314	-1.1371	0.0000 
1981.778	9.7723	19.7534	-0.7690	0.0000 
1981.799	9.8877	19.7809	-0.4340	0.0000 
1981.820	10.0031	19.7864	-0.1208	0.0000 
1981.844	10.1459	19.7809	0.1978	0.0000 
1981.908	10.3052	19.7479	0.5548	0.0000 
1981.917	10.5029	19.6655	0.9668	0.0000 
1981.918	10.7172	19.5612	1.4337	0.0000 
1981.924	10.9094	19.4623	1.9006	0.0000 
1981.938	11.1676	19.4513	2.3126	0.0000 
1981.961	11.3324	19.5721	2.5653	0.0000 
1981.982	11.3873	19.7150	2.6587	0.0000 
1982.004	11.4478	19.8029	2.7191	0.0000 
1982.025	11.4697	19.7589	2.9059	0.0000 
1982.036	11.5192	19.6436	3.2190	0.0000 
1982.056	11.6071	19.5721	3.5046	0.0000 
1982.128	11.6785	19.5831	3.6694	0.0000 
1982.134	11.6235	19.6381	3.6365	0.0000 
1982.134	11.4807	19.7095	3.5211	0.0000 
1982.140	11.3434	19.7644	3.4552	0.0000 
1982.159	11.2665	19.7644	3.4552	0.0000 
1982.182	11.2061	19.7260	3.4552	0.0000 
1982.204	11.1292	19.7205	3.3783	0.0000 
1982.216	11.0413	19.7479	3.2465	0.0000 
1982.235	10.9589	19.8083	3.0872	0.0000 
1982.255	10.8984	19.8853	2.9059	0.0000 
1982.275	10.8325	19.9896	2.7026	0.0000 
1982.345	10.7611	20.1050	2.5049	0.0000 
1982.352	10.6732	20.1819	2.3456	0.0000 
1982.352	10.5359	20.2313	2.1863	0.0000 
1982.358	10.3931	20.2917	1.9830	0.0000 
1982.375	10.2832	20.3412	1.7413	0.0000 
1982.397	10.2008	20.3687	1.4832	0.0000 
1982.419	10.1239	20.3796	1.2305	0.0000 
1982.442	10.0800	20.3741	0.9943	0.0000 
1982.454	10.1019	20.3851	0.7745	0.0000 
1982.479	10.1953	20.3961	0.5768	0.0000 
1982.499	10.3107	20.3851	0.3680	0.0000 
1982.561	10.4315	20.3577	0.1208	0.0000 
1982.572	10.5139	20.2972	-0.1373	0.0000 
1982.572	10.5798	20.1874	-0.3900	0.0000 
1982.578	10.6732	20.0555	-0.6537	0.0000 
1982.592	10.7446	19.8853	-0.9229	0.0000 
1982.613	10.8435	19.6710	-1.1151	0.0000 
1982.634	10.9918	19.5062	-1.2305	0.0000 
1982.656	11.1401	19.4458	-1.3568	0.0000 
1982.726	11.2280	19.4678	-1.5710	0.0000 
1982.736	11.1676	19.5447	-1.9006	0.0000 
1982.737	11.1017	19.5721	-2.2577	0.0000 
1982.743	11.1017	19.5227	-2.5323	0.0000 
1982.757	11.1346	19.4403	-2.7136	0.0000 
1982.779	11.1896	19.2975	-2.7850	0.0000 
1982.802	11.2280	19.1766	-2.7905	0.0000 
1982.823	11.1621	19.1437	-2.7686	0.0000 
1982.832	11.0852	19.1711	-2.7466	0.0000 
1982.852	10.9644	19.2206	-2.7521	0.0000 
1982.872	10.7941	19.2645	-2.7850	0.0000 
1982.945	10.6183	19.2810	-2.7850	0.0000 
1982.952	10.4535	19.2371	-2.7301	0.0000 
1982.952	10.3052	19.1876	-2.6422	0.0000 
1982.952	10.2173	19.1382	-2.5378	0.0000 
1982.979	10.1239	19.0887	-2.4225	0.0000 
1982.999	10.0195	19.0668	-2.3236	0.0000 
1983.020	9.8932	19.0833	-2.2192	0.0000 
1983.032	9.7778	19.1272	-2.0764	0.0000 
1983.051	9.7174	19.1602	-1.8842	0.0000 
1983.070	9.7119	19.1602	-1.6479	0.0000 
1983.090	9.7119	19.1382	-1.4172	0.0000 
1983.167	9.7394	19.0997	-1.1920	0.0000 
1983.173	9.7943	19.0448	-0.9558	0.0000 
1983.173	9.8767	18.9844	-0.7361	0.0000 
1983.173	9.9481	18.9294	-0.5054	0.0000 
1983.199	10.0415	18.8690	-0.2307	0.0000 
1983.209	10.2118	18.8031	0.1154	0.0000 
1983.229	10.3931	18.7537	0.5164	0.0000 
1983.249	10.6073	18.7042	0.8734	0.0000 
1983.269	10.8435	18.7152	1.1591	0.0000 
1983.329	10.9534	18.7756	1.3129	0.0000 
1983.339	11.0577	18.8196	1.4612	0.0000 
1983.339	11.1292	18.7866	1.7084	0.0000 
1983.348	11.2390	18.7097	2.0874	0.0000 
1983.368	11.3379	18.6932	2.4445	0.0000 
1983.388	11.3489	18.7537	2.6257	0.0000 
1983.408	11.2665	18.8361	2.6257	0.0000 
1983.428	11.1182	18.8855	2.5763	0.0000 
1983.449	10.9973	18.9020	2.5818	0.0000 
1983.468	10.8875	18.8855	2.6202	0.0000 
1983.549	10.7501	18.8800	2.6477	0.0000 
1983.555	10.5963	18.9514	2.6093	0.0000 
1983.555	10.4590	19.0668	2.4994	0.0000 
1983.555	10.3766	19.1876	2.3346	0.0000 
1983.567	10.3271	19.2975	2.1698	0.0000 
1983.587	10.2887	19.4128	2.0270	0.0000 
1983.607	10.2667	19.5227	1.9061	0.0000 
1983.627	10.2502	19.6271	1.7853	0.0000 
1983.647	10.2228	19.7369	1.6205	0.0000 
1983.667	10.1898	19.8578	1.3898	0.0000 
1983.688	10.1514	19.9677	1.1371	0.0000 
1983.767	10.1404	20.0336	0.9064	0.0000 
1983.773	10.1898	20.0665	0.7086	0.0000 
1983.773	10.2777	20.0665	0.5164	0.0000 
1983.773	10.3766	20.0720	0.2747	0.0000 
1983.786	10.4974	20.1160	-0.0604	0.0000 
1983.806	10.5139	20.1379	-0.4944	0.0000 
1983.825	10.4865	20.0665	-0.9119	0.0000 
1983.848	10.5084	19.9072	-1.2085	0.0000 
1983.865	10.5743	19.6710	-1.3293	0.0000 
1983.885	10.7611	19.4843	-1.3129	0.0000 
1983.907	10.8820	19.4073	-1.3348	0.0000 
1983.986	10.8435	19.4128	-1.4832	0.0000 
1983.992	10.5853	19.4403	-1.7853	0.0000 
1983.992	10.2942	19.4183	-2.1368	0.0000 
1983.992	10.1019	19.3195	-2.4115	0.0000 
1984.004	10.0085	19.1986	-2.5049	0.0000 
1984.024	9.9536	19.0887	-2.4939	0.0000 
1984.044	9.8712	19.0338	-2.4225	0.0000 
1984.064	9.7284	19.0668	-2.3676	0.0000 
1984.084	9.5636	19.1437	-2.3401	0.0000 
1984.156	9.4043	19.2096	-2.3346	0.0000 
1984.165	9.2285	19.2535	-2.3950	0.0000 
1984.166	9.0417	19.2755	-2.4609	0.0000 
1984.172	8.8330	19.2700	-2.5269	0.0000 
1984.188	8.6682	19.2480	-2.5598	0.0000 
1984.208	8.5693	19.2151	-2.5433	0.0000 
1984.230	8.5034	19.1711	-2.4664	0.0000 
1984.251	8.4595	19.1437	-2.3840	0.0000 
1984.265	8.3881	19.1437	-2.3126	0.0000 
1984.283	8.3057	19.1656	-2.2412	0.0000 
1984.304	8.2617	19.1986	-2.1204	0.0000 
1984.375	8.2837	19.2041	-1.9006	0.0000 
1984.381	8.3716	19.1656	-1.5985	0.0000 
1984.381	8.5034	19.1052	-1.2524	0.0000 
1984.388	8.6353	19.0338	-0.9064	0.0000 
1984.404	8.7946	18.9679	-0.5493	0.0000 
1984.427	9.0088	18.9459	-0.1923	0.0000 
1984.451	9.2560	18.9459	0.1758	0.0000 
1984.472	9.5526	18.9514	0.6152	0.0000 
1984.482	9.8273	18.9624	1.0767	0.0000 
1984.502	10.1074	19.0173	1.4557	0.0000 
1984.522	10.3656	19.1821	1.7084	0.0000 
1984.594	10.5469	19.3689	1.8951	0.0000 
1984.601	10.6952	19.4733	2.1149	0.0000 
1984.601	10.7556	19.5062	2.3895	0.0000 
1984.607	10.8545	19.4843	2.7795	0.0000 
1984.625	10.9808	19.4788	3.1531	0.0000 
1984.645	11.0413	19.5117	3.3673	0.0000 
1984.669	11.0028	19.5392	3.4332	0.0000 
1984.681	10.8765	19.5941	3.3783	0.0000 
1984.755	10.7336	19.6326	3.3124	0.0000 
1984.765	10.6348	19.6216	3.2684	0.0000 
1984.765	10.5194	19.6161	3.2025	0.0000 
1984.765	10.3931	19.6490	3.1091	0.0000 
1984.786	10.2722	19.6930	2.9883	0.0000 
1984.809	10.1733	19.7424	2.8125	0.0000 
1984.828	10.0909	19.7974	2.6093	0.0000 
1984.841	10.0195	19.8468	2.4280	0.0000 
1984.860	9.9646	19.8962	2.2742	0.0000 
1984.881	9.8987	19.9567	2.1094	0.0000 
1984.900	9.8273	20.0171	1.9336	0.0000 
1984.975	9.7394	20.0775	1.7194	0.0000 
1984.981	9.6899	20.1160	1.4447	0.0000 
1984.981	9.6790	20.1324	1.1646	0.0000 
1984.981	9.7229	20.1215	0.9229	0.0000 
1985.008	9.8218	20.0885	0.7306	0.0000 
1985.019	9.9756	20.0446	0.5768	0.0000 
1985.039	10.1459	20.0061	0.4340	0.0000 
1985.059	10.2338	19.9841	0.2142	0.0000 
1985.078	10.2777	19.9182	-0.0385	0.0000 
1985.098	10.3162	19.8138	-0.2802	0.0000 
1985.118	10.3326	19.6655	-0.5164	0.0000 
1985.200	10.4205	19.4733	-0.6647	0.0000 
1985.207	10.5139	19.3689	-0.7855	0.0000 
1985.207	10.5634	19.3744	-0.9174	0.0000 
1985.207	10.5304	19.4238	-1.1096	0.0000 
1985.218	10.4095	19.4733	-1.3843	0.0000 
1985.237	10.2997	19.4678	-1.6479	0.0000 
1985.257	10.2448	19.4128	-1.8182	0.0000 
1985.279	10.2338	19.2975	-1.8787	0.0000 
1985.299	10.2283	19.1547	-1.8896	0.0000 
1985.362	10.1788	19.0668	-1.9171	0.0000 
1985.374	10.0470	19.0558	-1.9995	0.0000 
1985.374	9.8657	19.1217	-2.1259	0.0000 
1985.380	9.6570	19.1986	-2.3071	0.0000 
1985.397	9.4263	19.2590	-2.5049	0.0000 
1985.416	9.1901	19.2810	-2.6587	0.0000 
1985.437	9.0033	19.2590	-2.7411	0.0000 
1985.457	8.9209	19.2206	-2.7301	0.0000 
1985.479	8.8879	19.1656	-2.6532	0.0000 
1985.501	8.8770	19.1327	-2.5708	0.0000 
1985.525	8.8440	19.0887	-2.4884	0.0000 
1985.586	8.7836	19.0723	-2.4115	0.0000 
1985.596	8.7231	19.0997	-2.3346	0.0000 
1985.596	8.6572	19.1656	-2.2632	0.0000 
1985.602	8.6353	19.2535	-2.1808	0.0000 
1985.618	8.6902	19.3085	-2.0270	0.0000 
1985.640	8.8165	19.3195	-1.8073	0.0000 
1985.662	8.9923	19.2810	-1.5106	0.0000 
1985.683	9.1736	19.1986	-1.1920	0.0000 
1985.704	9.3274	19.0723	-0.8954	0.0000 
1985.715	9.4373	19.0009	-0.6372	0.0000 
1985.735	9.5471	19.0393	-0.4504	0.0000 
1985.806	9.6515	19.1107	-0.3406	0.0000 
1985.812	9.7284	19.1547	-0.2472	0.0000 
1985.812	9.7833	19.1437	-0.1044	0.0000 
1985.818	9.7339	19.0723	0.1044	0.0000 
1985.837	9.6790	19.0063	0.3241	0.0000 
1985.858	9.6405	18.9844	0.4779	0.0000 
1985.882	9.5471	19.0393	0.5328	0.0000 
1985.903	9.3988	19.0997	0.4834	0.0000 
1985.968	9.1736	19.1052	0.3790	0.0000 
1985.979	8.9264	19.0833	0.3186	0.0000 
1985.979	8.7506	19.0228	0.3900	0.0000 
1985.979	8.6517	18.9734	0.5273	0.0000 
1986.001	8.5748	18.9679	0.6317	0.0000 
1986.022	8.4595	19.0173	0.6152	0.0000 
1986.034	8.2837	19.1217	0.4559	0.0000 
1986.053	8.1079	19.2480	0.2527	0.0000 
1986.073	8.0035	19.3744	0.1154	0.0000 
1986.093	7.9596	19.4733	0.0385	0.0000 
1986.113	7.9486	19.5557	-0.0055	0.0000 
1986.192	7.9321	19.6490	-0.1099	0.0000 
1986.199	7.9047	19.7424	-0.2802	0.0000 
1986.199	7.8772	19.8303	-0.5164	0.0000 
1986.199	7.8772	19.8907	-0.8075	0.0000 
1986.212	7.9266	19.9347	-1.1041	0.0000 
1986.232	8.0420	19.9567	-1.3513	0.0000 
1986.252	8.2233	19.9786	-1.5546	0.0000 
1986.272	8.3936	19.9896	-1.7413	0.0000 
1986.291	8.5803	19.9567	-1.8896	0.0000 
1986.311	8.7012	19.9017	-2.0819	0.0000 
1986.332	8.8110	19.7919	-2.2687	0.0000 
1986.411	9.0308	19.6765	-2.3016	0.0000 
1986.418	9.2285	19.6106	-2.2577	0.0000 
1986.418	9.2450	19.6271	-2.2852	0.0000 
1986.418	9.1461	19.7150	-2.4609	0.0000 
1986.431	9.0308	19.7754	-2.7081	0.0000 
1986.451	8.9868	19.7479	-2.9443	0.0000 
1986.470	8.9868	19.6490	-3.1036	0.0000 
1986.490	8.9978	19.5062	-3.2025	0.0000 
1986.510	8.9758	19.3799	-3.2135	0.0000 
1986.532	8.8989	19.3140	-3.1750	0.0000 
1986.551	8.8055	19.3304	-3.1421	0.0000 
1986.632	8.7231	19.3744	-3.1366	0.0000 
1986.638	8.5858	19.4183	-3.2025	0.0000 
1986.638	8.4155	19.4568	-3.3014	0.0000 
1986.638	8.2507	19.4458	-3.3618	0.0000 
1986.649	8.1134	19.4128	-3.3673	0.0000 
1986.669	8.0420	19.3689	-3.3234	0.0000 
1986.689	8.0255	19.3304	-3.2190	0.0000 
1986.709	8.0090	19.3030	-3.0762	0.0000 
1986.729	7.9596	19.3195	-2.9553	0.0000 
1986.792	7.8937	19.3469	-2.8235	0.0000 
1986.803	7.8717	19.3964	-2.6587	0.0000 
1986.803	7.8882	19.4238	-2.4554	0.0000 
1986.809	7.9321	19.4293	-2.2247	0.0000 
1986.828	7.9761	19.4348	-2.0160	0.0000 
1986.848	8.0310	19.4183	-1.8073	0.0000 
1986.868	8.0969	19.3909	-1.5930	0.0000 
1986.890	8.1409	19.3579	-1.3898	0.0000 
1986.912	8.2288	19.3634	-1.1316	0.0000 
1986.936	8.3386	19.3964	-0.7855	0.0000 
1986.957	8.4650	19.4019	-0.4010	0.0000 
1987.017	8.6133	19.3744	-0.0494	0.0000 
1987.026	8.6517	19.4128	0.1483	0.0000 
1987.027	8.6517	19.5007	0.2087	0.0000 
1987.033	8.6517	19.5612	0.3131	0.0000 
1987.050	8.7067	19.5886	0.5713	0.0000 
1987.070	8.7616	19.6326	0.8295	0.0000 
1987.094	8.7671	19.7369	0.9229	0.0000 
1987.116	8.6957	19.8248	0.8899	0.0000 
1987.136	8.5419	19.8578	0.8075	0.0000 
1987.148	8.3936	19.8358	0.7690	0.0000 
1987.167	8.2782	19.7974	0.7965	0.0000 
1987.241	8.2123	19.7479	0.8789	0.0000 
1987.247	8.1299	19.7150	0.9283	0.0000 
1987.248	8.0145	19.7314	0.8844	0.0000 
1987.248	7.9047	19.7699	0.7855	0.0000 
1987.273	7.8442	19.7809	0.7086	0.0000 
1987.294	7.8113	19.8029	0.6317	0.0000 
1987.316	7.8058	19.8413	0.5383	0.0000 
1987.326	7.8113	19.8798	0.4504	0.0000 
1987.403	7.8003	19.8962	0.3461	0.0000 
1987.410	7.8058	19.9237	0.1758	0.0000 
1987.410	7.8387	19.9622	-0.0494	0.0000 
1987.410	7.9486	19.9402	-0.2966	0.0000 
1987.434	8.1079	19.8578	-0.5383	0.0000 
1987.445	8.2782	19.7369	-0.7416	0.0000 
1987.465	8.4045	19.5941	-0.9558	0.0000 
1987.492	8.5968	19.3854	-1.0986	0.0000 
1987.511	8.7781	19.1711	-1.2469	0.0000 
1987.525	8.9374	18.9954	-1.3788	0.0000 
1987.551	9.1901	18.9294	-1.4447	0.0000 
1987.626	9.3823	18.9899	-1.4447	0.0000 
1987.633	9.4647	19.0997	-1.4722	0.0000 
1987.633	9.3768	19.2316	-1.5985	0.0000 
1987.633	9.1626	19.3250	-1.8677	0.0000 
1987.644	9.0143	19.3250	-2.1533	0.0000 
1987.664	9.0143	19.2261	-2.2522	0.0000 
1987.683	9.0912	19.0778	-2.1588	0.0000 
1987.704	9.1626	18.9349	-1.9666	0.0000 
1987.723	9.1132	18.8416	-1.7798	0.0000 
1987.743	9.0143	18.8361	-1.6040	0.0000 
1987.766	8.9099	18.8690	-1.4392	0.0000 
1987.846	8.7451	18.9130	-1.3568	0.0000 
1987.852	8.5364	18.9624	-1.3678	0.0000 
1987.852	8.3276	18.9459	-1.3678	0.0000 
1987.852	8.1628	18.8690	-1.3019	0.0000 
1987.863	8.0859	18.7537	-1.1755	0.0000 
1987.882	8.0365	18.6438	-1.0437	0.0000 
1987.902	8.0475	18.5449	-0.8569	0.0000 
1987.922	8.0530	18.4680	-0.5933	0.0000 
1987.942	8.0640	18.4570	-0.3076	0.0000 
1988.007	8.0804	18.5120	-0.0439	0.0000 
1988.017	8.1299	18.5779	0.2032	0.0000 
1988.017	8.1903	18.6053	0.4559	0.0000 
1988.024	8.2343	18.5889	0.7141	0.0000 
1988.041	8.2837	18.5724	0.9723	0.0000 
1988.062	8.3716	18.5999	1.2195	0.0000 
1988.082	8.5089	18.6603	1.5051	0.0000 
1988.105	8.6957	18.7207	1.8677	0.0000 
1988.125	8.8989	18.7976	2.2797	0.0000 
1988.146	9.1351	18.9075	2.7191	0.0000 
1988.168	9.3713	19.0063	3.2025	0.0000 
1988.228	9.6130	19.0063	3.6969	0.0000 
1988.238	9.9097	18.9569	4.1583	0.0000 
1988.238	10.1678	19.0833	4.4550	0.0000 
1988.244	10.2887	19.3195	4.5428	0.0000 
1988.260	10.3107	19.4952	4.6472	0.0000 
1988.281	10.3052	19.5337	4.9329	0.0000 
1988.302	10.3381	19.5337	5.2899	0.0000 
1988.323	10.3876	19.5172	5.4932	0.0000 
1988.346	10.3381	19.4568	5.5096	0.0000 
1988.368	10.2063	19.4019	5.4163	0.0000 
1988.381	10.0250	19.3469	5.2899	0.0000 
1988.448	9.8492	19.2755	5.1910	0.0000 
1988.458	9.7614	19.1876	5.1196	0.0000 
1988.458	9.7229	19.1437	5.0043	0.0000 
1988.464	9.6844	19.1437	4.8450	0.0000 
1988.482	9.6405	19.1602	4.6912	0.0000 
1988.502	9.6240	19.1931	4.5538	0.0000 
1988.525	9.6350	19.2535	4.4110	0.0000 
1988.546	9.6240	19.3524	4.1913	0.0000 
1988.568	9.5251	19.4403	3.9221	0.0000 
1988.581	9.3713	19.4897	3.6530	0.0000 
1988.599	9.2450	19.5007	3.4167	0.0000 
1988.673	9.2065	19.4733	3.1970	0.0000 
1988.681	9.2065	19.4019	2.9718	0.0000 
1988.681	9.2285	19.3469	2.7136	0.0000 
1988.681	9.2725	19.3250	2.4774	0.0000 
1988.704	9.3658	19.3250	2.2906	0.0000 
1988.727	9.4812	19.3414	2.1149	0.0000 
1988.738	9.5691	19.3085	1.9501	0.0000 
1988.758	9.6515	19.1986	1.7798	0.0000 
1988.778	9.6735	19.0283	1.5710	0.0000 
1988.837	9.7284	18.8196	1.3843	0.0000 
1988.846	9.9371	18.6383	1.3239	0.0000 
1988.847	10.1074	18.5504	1.3513	0.0000 
1988.857	10.1678	18.5229	1.3074	0.0000 
1988.877	10.0580	18.5669	1.0931	0.0000 
1988.897	9.9756	18.6273	0.8295	0.0000 
1988.917	10.0195	18.6328	0.6812	0.0000 
1988.937	10.1294	18.5779	0.6702	0.0000 
1988.956	10.2502	18.4900	0.7690	0.0000 
1988.979	10.2612	18.4680	0.8514	0.0000 
1989.058	10.0964	18.5669	0.8405	0.0000 
1989.064	9.8932	18.7317	0.7910	0.0000 
1989.064	9.6954	18.8635	0.7471	0.0000 
1989.064	9.5032	18.9514	0.7086	0.0000 
1989.076	9.3164	18.9954	0.7031	0.0000 
1989.095	9.1241	19.0063	0.7196	0.0000 
1989.116	8.9813	19.0118	0.7910	0.0000 
1989.135	8.9429	19.0173	0.9503	0.0000 
1989.156	8.9429	19.0448	1.1261	0.0000 
1989.176	8.9319	19.1217	1.2689	0.0000 
1989.199	8.8879	19.2480	1.3843	0.0000 
1989.279	8.8220	19.4019	1.5216	0.0000 
1989.285	8.8275	19.5447	1.7194	0.0000 
1989.285	8.8715	19.6326	1.9611	0.0000 
1989.285	8.8824	19.7260	2.1478	0.0000 
1989.294	8.8605	19.8523	2.2522	0.0000 
1989.314	8.8715	19.9786	2.3840	0.0000 
1989.334	8.9044	20.0775	2.5488	0.0000 
1989.354	8.9923	20.1489	2.7466	0.0000 
1989.374	9.1022	20.2313	2.9663	0.0000 
1989.439	9.2230	20.3082	3.2025	0.0000 
1989.449	9.4098	20.3137	3.4827	0.0000 
1989.449	9.6130	20.3192	3.7408	0.0000 
1989.455	9.7449	20.3851	3.8672	0.0000 
1989.473	9.7998	20.4675	3.9111	0.0000 
1989.493	9.7778	20.5005	4.0100	0.0000 
1989.514	9.7943	20.4785	4.2078	0.0000 
1989.533	9.8328	20.4510	4.3561	0.0000 
1989.556	9.7833	20.4291	4.3341	0.0000 
1989.578	9.6130	20.3851	4.2023	0.0000 
1989.600	9.3713	20.3247	4.0540	0.0000 
1989.660	9.1736	20.2643	3.9880	0.0000 
1989.669	9.0253	20.1819	4.0100	0.0000 
1989.669	8.9264	20.1324	4.0540	0.0000 
1989.676	8.8220	20.0995	4.0485	0.0000 
1989.692	8.6847	20.0830	3.9880	0.0000 
1989.712	8.5583	20.0610	3.9221	0.0000 
1989.734	8.4650	20.0500	3.8782	0.0000 
1989.758	8.4100	20.0555	3.8123	0.0000 
1989.779	8.3167	20.0830	3.7024	0.0000 
1989.801	8.1793	20.1160	3.5486	0.0000 
1989.873	8.0804	20.1215	3.4167	0.0000 
1989.882	8.0090	20.1050	3.2520	0.0000 
1989.883	7.9761	20.0885	3.0212	0.0000 
1989.883	7.9761	20.0665	2.7740	0.0000 
1989.892	8.0475	20.0281	2.5708	0.0000 
1989.911	8.1793	19.9841	2.4225	0.0000 
1989.931	8.3276	19.9237	2.3071	0.0000 
1989.951	8.4924	19.8138	2.2083	0.0000 
1989.971	8.6353	19.6985	2.0984	0.0000 
1990.034	8.7451	19.5721	1.9666	0.0000 
1990.043	8.9374	19.4897	1.9061	0.0000 
1990.044	9.1187	19.5117	1.8896	0.0000 
1990.050	9.2120	19.6381	1.8292	0.0000 
1990.071	9.1406	19.8083	1.6205	0.0000 
1990.090	8.9429	19.9512	1.2854	0.0000 
1990.110	8.7726	19.9677	0.9833	0.0000 
1990.131	8.7122	19.8798	0.8020	0.0000 
1990.152	8.7012	19.7534	0.7031	0.0000 
1990.173	8.7067	19.6710	0.6537	0.0000 
1990.196	8.6407	19.6875	0.6097	0.0000 
1990.256	8.4924	19.7754	0.5713	0.0000 
1990.266	8.3386	19.8798	0.5219	0.0000 
1990.266	8.1354	19.9512	0.4065	0.0000 
1990.272	7.9156	19.9896	0.2307	0.0000 
1990.290	7.7069	19.9731	0.0714	0.0000 
1990.309	7.5366	19.9127	-0.0055	0.0000 
1990.331	7.4213	19.8029	0.0000	0.0000 
1990.354	7.3389	19.6985	0.0165	0.0000 
1990.375	7.3169	19.6271	0.0494	0.0000 
1990.398	7.2784	19.5667	0.1208	0.0000 
1990.408	7.2290	19.5392	0.2197	0.0000 
1990.477	7.2015	19.5447	0.3516	0.0000 
1990.487	7.2345	19.5667	0.5548	0.0000 
1990.488	7.3004	19.5831	0.7910	0.0000 
1990.494	7.3773	19.5941	1.0492	0.0000 
1990.508	7.4597	19.5941	1.2854	0.0000 
1990.531	7.5531	19.6161	1.4832	0.0000 
1990.553	7.6630	19.6216	1.6644	0.0000 
1990.574	7.8333	19.5667	1.9116	0.0000 
1990.639	7.9871	19.5282	2.2137	0.0000 
1990.649	8.1244	19.5227	2.4664	0.0000 
1990.649	8.2947	19.5667	2.6532	0.0000 
1990.655	8.3826	19.6326	2.7905	0.0000 
1990.670	8.4045	19.6655	2.8949	0.0000 
1990.692	8.3826	19.6600	3.0157	0.0000 
1990.714	8.4155	19.6216	3.2794	0.0000 
1990.736	8.4979	19.6051	3.5925	0.0000 
1990.747	8.5254	19.6765	3.7628	0.0000 
1990.766	8.4430	19.7809	3.7299	0.0000 
1990.786	8.2178	19.8413	3.6145	0.0000 
1990.859	7.9706	19.8688	3.5156	0.0000 
1990.865	7.8113	19.8578	3.5046	0.0000 
1990.865	7.7124	19.8358	3.5266	0.0000 
1990.871	7.6190	19.8358	3.5101	0.0000 
1990.890	7.5037	19.8578	3.4662	0.0000 
1990.915	7.4048	19.8907	3.4058	0.0000 
1990.926	7.3444	19.9402	3.3618	0.0000 
1990.945	7.3663	20.0336	3.2959	0.0000 
1990.965	7.3718	20.1489	3.1970	0.0000 
1990.984	7.2949	20.3027	3.0103	0.0000 
1991.004	7.1796	20.4456	2.7686	0.0000 
1991.082	7.0642	20.5444	2.5214	0.0000 
1991.089	6.9928	20.5994	2.2961	0.0000 
1991.089	6.9763	20.6378	2.0380	0.0000 
1991.089	6.9873	20.6598	1.7249	0.0000 
1991.113	6.9928	20.6488	1.4337	0.0000 
1991.123	7.0532	20.6433	1.1975	0.0000 
1991.144	7.1576	20.6323	0.9943	0.0000 
1991.164	7.3004	20.5829	0.7635	0.0000 
1991.184	7.4762	20.4730	0.4834	0.0000 
1991.204	7.6080	20.3137	0.1483	0.0000 
1991.224	7.6740	20.0885	-0.1318	0.0000 
1991.308	7.7563	19.8468	-0.3131	0.0000 
1991.314	7.8992	19.6710	-0.3680	0.0000 
1991.314	7.9816	19.5447	-0.4175	0.0000 
1991.314	7.9102	19.5007	-0.6207	0.0000 
1991.323	7.8003	19.5007	-0.9229	0.0000 
1991.343	7.7618	19.4733	-1.2415	0.0000 
1991.364	7.8442	19.3909	-1.4502	0.0000 
1991.383	7.9926	19.2480	-1.4886	0.0000 
1991.404	8.1134	19.0997	-1.4502	0.0000 
1991.471	8.1024	19.0228	-1.4667	0.0000 
1991.481	7.9980	19.0338	-1.5656	0.0000 
1991.482	7.8607	19.0942	-1.7358	0.0000 
1991.489	7.6904	19.1602	-1.9391	0.0000 
1991.502	7.4982	19.1931	-2.1204	0.0000 
1991.525	7.3389	19.2041	-2.2412	0.0000 
1991.548	7.2070	19.1492	-2.2797	0.0000 
1991.569	7.0917	19.0778	-2.2961	0.0000 
1991.581	6.9818	19.0448	-2.3511	0.0000 
1991.601	6.8335	19.0173	-2.3730	0.0000 
1991.621	6.6907	18.9954	-2.2687	0.0000 
1991.692	6.6248	19.0063	-2.0490	0.0000 
1991.698	6.6577	19.0558	-1.7468	0.0000 
1991.698	6.7731	19.1327	-1.4447	0.0000 
1991.704	6.9543	19.2041	-1.1536	0.0000 
1991.723	7.1191	19.2810	-0.9119	0.0000 
1991.745	7.2620	19.3469	-0.6866	0.0000 
1991.767	7.4817	19.3414	-0.3571	0.0000 
1991.781	7.7838	19.2975	0.0824	0.0000 
1991.858	8.0969	19.2316	0.5273	0.0000 
1991.868	8.4100	19.2261	0.8899	0.0000 
1991.868	8.6133	19.3744	1.1206	0.0000 
1991.868	8.7177	19.5502	1.2689	0.0000 
1991.880	8.7726	19.6326	1.4502	0.0000 
1991.900	8.8550	19.6216	1.7853	0.0000 
1991.919	8.9264	19.6106	2.1533	0.0000 
1991.939	8.8934	19.6600	2.3401	0.0000 
1991.959	8.7451	19.7150	2.3181	0.0000 
1991.979	8.4814	19.7479	2.1918	0.0000 
1991.999	8.2343	19.7314	2.1094	0.0000 
1992.082	8.1024	19.6545	2.1313	0.0000 
1992.088	7.9871	19.5612	2.1533	0.0000 
1992.088	7.8717	19.5282	2.0764	0.0000 
1992.088	7.7344	19.5557	1.8842	0.0000 
1992.099	7.5806	19.6051	1.6260	0.0000 
1992.118	7.4872	19.6600	1.3623	0.0000 
1992.138	7.4542	19.6930	1.1426	0.0000 
1992.158	7.3828	19.7150	0.9119	0.0000 
1992.179	7.2894	19.7589	0.6482	0.0000 
1992.199	7.2015	19.7864	0.3955	0.0000 
1992.223	7.1356	19.7809	0.1428	0.0000 
1992.305	7.0752	19.7314	-0.1538	0.0000 
1992.311	7.0642	19.6545	-0.4779	0.0000 
1992.311	7.1246	19.5227	-0.7306	0.0000 
1992.312	7.2400	19.3744	-0.9174	0.0000 
1992.318	7.4048	19.2426	-1.0876	0.0000 
1992.337	7.5696	19.1492	-1.2799	0.0000 
1992.357	7.7014	19.0393	-1.5106	0.0000 
1992.381	7.7893	18.9349	-1.8182	0.0000 
1992.401	7.8003	18.8361	-2.2028	0.0000 
1992.466	7.8882	18.6932	-2.4884	0.0000 
1992.475	8.0640	18.5724	-2.6093	0.0000 
1992.476	8.1683	18.5449	-2.7136	0.0000 
1992.488	8.1244	18.6383	-2.9498	0.0000 
1992.505	7.8992	18.7701	-3.3124	0.0000 
1992.522	7.7124	18.8416	-3.6969	0.0000 
1992.543	7.6520	18.7976	-3.9990	0.0000 
1992.556	7.6575	18.6823	-4.2297	0.0000 
1992.575	7.6410	18.5229	-4.3781	0.0000 
1992.602	7.6190	18.4241	-4.4385	0.0000 
1992.616	7.5641	18.4021	-4.4440	0.0000 
1992.689	7.4762	18.4351	-4.4385	0.0000 
1992.695	7.3718	18.4845	-4.5099	0.0000 
1992.695	7.2180	18.5010	-4.6527	0.0000 
1992.701	7.0148	18.5175	-4.8615	0.0000 
1992.719	6.8335	18.5010	-5.0153	0.0000 
1992.742	6.7236	18.4351	-5.0372	0.0000 
1992.763	6.6687	18.3362	-4.9548	0.0000 
1992.776	6.6632	18.2593	-4.8285	0.0000 
1992.795	6.6467	18.1934	-4.7296	0.0000 
1992.814	6.5863	18.1659	-4.6857	0.0000 
1992.834	6.5259	18.1549	-4.6582	0.0000 
1992.910	6.5039	18.1384	-4.5813	0.0000 
1992.916	6.4984	18.1055	-4.4769	0.0000 
1992.916	6.4709	18.0341	-4.3671	0.0000 
1992.916	6.4490	17.9626	-4.2847	0.0000 
1992.941	6.4655	17.9132	-4.2133	0.0000 
1992.954	6.4819	17.8748	-4.1364	0.0000 
1992.973	6.4984	17.8748	-4.0375	0.0000 
1992.993	6.5424	17.8967	-3.8947	0.0000 
1993.014	6.6632	17.9187	-3.6530	0.0000 
1993.033	6.8115	17.9132	-3.3344	0.0000 
1993.053	6.9543	17.8912	-3.0048	0.0000 
1993.122	7.1246	17.8418	-2.6917	0.0000 
1993.133	7.3389	17.8473	-2.4060	0.0000 
1993.133	7.4323	17.9846	-2.2742	0.0000 
1993.139	7.4048	18.1769	-2.2961	0.0000 
1993.153	7.3553	18.3252	-2.2742	0.0000 
1993.174	7.3828	18.3307	-1.9720	0.0000 
1993.197	7.4432	18.2977	-1.6040	0.0000 
1993.218	7.4707	18.3032	-1.4227	0.0000 
1993.286	7.4268	18.3032	-1.3898	0.0000 
1993.296	7.1796	18.3197	-1.4612	0.0000 
1993.296	6.9159	18.3307	-1.5161	0.0000 
1993.296	6.6852	18.3252	-1.5326	0.0000 
1993.319	6.4819	18.3417	-1.5930	0.0000 
1993.340	6.2567	18.3966	-1.7249	0.0000 
1993.352	6.0205	18.4735	-1.8512	0.0000 
1993.371	5.8667	18.5504	-1.9391	0.0000 
1993.391	5.7733	18.6053	-1.9995	0.0000 
1993.411	5.7129	18.6713	-2.0764	0.0000 
1993.431	5.6525	18.7537	-2.1973	0.0000 
1993.507	5.5591	18.8580	-2.3785	0.0000 
1993.513	5.5151	18.9679	-2.5928	0.0000 
1993.514	5.5316	19.0503	-2.8125	0.0000 
1993.514	5.6030	19.0668	-3.0432	0.0000 
1993.538	5.7513	19.0558	-3.3124	0.0000 
1993.550	5.9491	19.0448	-3.5651	0.0000 
1993.569	6.1249	19.0503	-3.7903	0.0000 
1993.589	6.2402	19.0228	-4.0265	0.0000 
1993.610	6.3776	18.9240	-4.2957	0.0000 
1993.630	6.4984	18.7921	-4.6252	0.0000 
1993.649	6.7291	18.6053	-4.8450	0.0000 
1993.725	7.0258	18.5010	-4.9438	0.0000 
1993.731	7.1631	18.5504	-5.0867	0.0000 
1993.731	7.0862	18.6768	-5.3009	0.0000 
1993.731	6.9818	18.8141	-5.5701	0.0000 
1993.757	6.9818	18.8470	-5.8832	0.0000 
1993.776	7.0752	18.8361	-6.1743	0.0000 
1993.788	7.1576	18.7811	-6.3666	0.0000 
1993.808	7.1466	18.6932	-6.4435	0.0000 
1993.828	7.0313	18.6328	-6.4545	0.0000 
1993.848	6.9489	18.6273	-6.4215	0.0000 
1993.868	6.9543	18.6548	-6.3556	0.0000 
1993.950	6.9434	18.6823	-6.3446	0.0000 
1993.956	6.8390	18.7207	-6.4490	0.0000 
1993.956	6.6632	18.7152	-6.5808	0.0000 
1993.956	6.4984	18.6383	-6.6083	0.0000 
1993.967	6.3940	18.5229	-6.5643	0.0000 
1993.987	6.3721	18.4131	-6.5149	0.0000 
1994.007	6.3666	18.3307	-6.4874	0.0000 
1994.028	6.3556	18.2813	-6.4709	0.0000 
1994.051	6.3556	18.2483	-6.4050	0.0000 
1994.114	6.3831	18.2098	-6.2402	0.0000 
1994.123	6.4325	18.1769	-6.0590	0.0000 
1994.123	6.4325	18.1494	-5.9216	0.0000 
1994.129	6.3940	18.1439	-5.8282	0.0000 
1994.147	6.3666	18.1659	-5.7458	0.0000 
1994.167	6.3556	18.1879	-5.6415	0.0000 
1994.188	6.3885	18.2098	-5.5096	0.0000 
1994.210	6.4819	18.2208	-5.3284	0.0000 
1994.232	6.6028	18.2483	-5.0757	0.0000 
1994.253	6.8390	18.2758	-4.8065	0.0000 
1994.275	7.0532	18.3197	-4.5703	0.0000 
1994.337	7.1521	18.4131	-4.4275	0.0000 
1994.347	7.2125	18.5120	-4.3890	0.0000 
1994.347	7.2784	18.5669	-4.3176	0.0000 
1994.354	7.4158	18.5779	-4.0540	0.0000 
1994.369	7.5476	18.6108	-3.7244	0.0000 
1994.394	7.5970	18.7097	-3.5321	0.0000 
1994.412	7.5696	18.7921	-3.4882	0.0000 
1994.425	7.4872	18.8361	-3.4882	0.0000 
1994.445	7.3883	18.8361	-3.4387	0.0000 
1994.506	7.3059	18.7921	-3.3179	0.0000 
1994.516	7.2455	18.7152	-3.2135	0.0000 
1994.516	7.1741	18.6273	-3.1531	0.0000 
1994.524	7.0752	18.5834	-3.1696	0.0000 
1994.545	6.9983	18.5944	-3.2135	0.0000 
1994.564	6.9763	18.6218	-3.2410	0.0000 
1994.584	6.9873	18.6603	-3.2465	0.0000 
1994.604	7.0093	18.7262	-3.2629	0.0000 
1994.624	7.0038	18.7976	-3.2849	0.0000 
1994.645	6.9708	18.8635	-3.3289	0.0000 
1994.730	6.9214	18.9349	-3.4222	0.0000 
1994.736	6.9049	19.0009	-3.5760	0.0000 
1994.736	6.9049	19.0393	-3.7683	0.0000 
1994.736	6.9379	19.0338	-3.9935	0.0000 
1994.744	7.0532	19.0009	-4.2133	0.0000 
1994.763	7.1521	18.9185	-4.4055	0.0000 
1994.783	7.2290	18.7646	-4.5758	0.0000 
1994.805	7.3499	18.5724	-4.7131	0.0000 
1994.826	7.4542	18.3746	-4.8395	0.0000 
1994.847	7.5970	18.2153	-4.8834	0.0000 
1994.868	7.6740	18.1604	-4.9274	0.0000 
1994.891	7.6355	18.1659	-4.9823	0.0000 
1994.951	7.5531	18.1769	-5.0537	0.0000 
1994.961	7.4762	18.1604	-5.1801	0.0000 
1994.961	7.3938	18.1055	-5.4327	0.0000 
1994.967	7.3004	18.0505	-5.7349	0.0000 
1994.983	7.2400	17.9901	-5.9271	0.0000 
1995.005	7.2015	17.8857	-5.9052	0.0000 
1995.026	7.1851	17.7979	-5.7733	0.0000 
1995.049	7.1741	17.7704	-5.6580	0.0000 
1995.114	7.1246	17.7979	-5.6250	0.0000 
1995.124	6.9983	17.8198	-5.6689	0.0000 
1995.124	6.8005	17.8253	-5.7239	0.0000 
1995.130	6.6083	17.7814	-5.7404	0.0000 
1995.144	6.4600	17.7264	-5.7349	0.0000 
1995.166	6.3336	17.6385	-5.6909	0.0000 
1995.188	6.2128	17.5726	-5.6525	0.0000 
1995.209	6.1249	17.5342	-5.5920	0.0000 
1995.220	6.0370	17.5232	-5.4822	0.0000 
1995.240	5.9546	17.5397	-5.3503	0.0000 
1995.260	5.8997	17.5726	-5.1910	0.0000 
1995.332	5.8612	17.6056	-5.0208	0.0000 
1995.338	5.8282	17.6440	-4.8615	0.0000 
1995.338	5.7678	17.6935	-4.7186	0.0000 
1995.344	5.7129	17.7704	-4.5758	0.0000 
1995.363	5.6799	17.8748	-4.4165	0.0000 
1995.385	5.7129	17.9572	-4.1638	0.0000 
1995.406	5.7733	18.0286	-3.8617	0.0000 
1995.427	5.8282	18.1219	-3.5815	0.0000 
1995.440	5.8887	18.2428	-3.3289	0.0000 
1995.459	5.9766	18.3582	-3.0817	0.0000 
1995.479	6.1029	18.4570	-2.7905	0.0000 
1995.555	6.1853	18.5449	-2.5159	0.0000 
1995.562	6.2897	18.6053	-2.2577	0.0000 
1995.562	6.3776	18.6548	-2.0380	0.0000 
1995.563	6.4380	18.7042	-1.8842	0.0000 
1995.588	6.4764	18.7701	-1.7908	0.0000 
1995.599	6.5204	18.8141	-1.7084	0.0000 
1995.618	6.5259	18.7921	-1.5985	0.0000 
1995.638	6.5698	18.7482	-1.4392	0.0000 
1995.658	6.7126	18.7207	-1.2524	0.0000 
1995.680	6.8280	18.7372	-1.0986	0.0000 
1995.699	6.8610	18.8141	-1.0492	0.0000 
1995.774	6.8555	18.9075	-1.0657	0.0000 
1995.781	6.8280	18.9514	-1.1371	0.0000 
1995.781	6.7896	18.9459	-1.2469	0.0000 
1995.781	6.6962	18.9404	-1.4172	0.0000 
1995.807	6.5698	18.9624	-1.6260	0.0000 
1995.818	6.4709	18.9954	-1.8127	0.0000 
1995.837	6.4050	19.0173	-1.9501	0.0000 
1995.857	6.3611	19.0613	-2.1149	0.0000 
1995.876	6.3226	19.1437	-2.3621	0.0000 
1995.938	6.3116	19.2590	-2.6422	0.0000 
1995.949	6.2842	19.3634	-2.9333	0.0000 
1995.949	6.2292	19.4458	-3.2355	0.0000 
1995.956	6.1304	19.5117	-3.5651	0.0000 
1995.976	6.0095	19.5557	-3.8892	0.0000 
1995.997	5.8722	19.5886	-4.2078	0.0000 
1996.016	5.7623	19.6161	-4.5099	0.0000 
1996.036	5.6909	19.6106	-4.7845	0.0000 
1996.055	5.6250	19.5831	-5.0592	0.0000 
1996.077	5.5756	19.5831	-5.3943	0.0000 
1996.157	5.5591	19.6216	-5.7678	0.0000 
1996.163	5.5591	19.6710	-6.1469	0.0000 
1996.163	5.5865	19.6765	-6.5094	0.0000 
1996.164	5.6085	19.6655	-6.8939	0.0000 
1996.175	5.6305	19.6106	-7.3114	0.0000 
1996.195	5.7239	19.4897	-7.6959	0.0000 
1996.214	5.7898	19.3195	-8.0420	0.0000 
1996.234	5.8447	19.0997	-8.3331	0.0000 
1996.255	5.9601	18.9020	-8.5089	0.0000 
1996.276	6.0974	18.7921	-8.6243	0.0000 
1996.299	6.2183	18.8141	-8.7561	0.0000 
1996.379	6.2622	18.9514	-9.0033	0.0000 
1996.386	6.1578	19.1382	-9.3878	0.0000 
1996.386	5.9766	19.2810	-9.8163	0.0000 
1996.386	5.8228	19.3250	-10.1898	0.0000 
1996.393	5.7294	19.2316	-10.4095	0.0000 
1996.413	5.7349	19.0613	-10.4590	0.0000 
1996.434	5.7513	18.8910	-10.4205	0.0000 
1996.456	5.7733	18.7701	-10.3107	0.0000 
1996.477	5.7404	18.6932	-10.1788	0.0000 
1996.542	5.6635	18.6603	-10.1074	0.0000 
1996.551	5.5536	18.6383	-10.0635	0.0000 
1996.551	5.4492	18.6108	-9.9976	0.0000 
1996.558	5.3668	18.5449	-9.8987	0.0000 
1996.572	5.3284	18.4460	-9.7668	0.0000 
1996.595	5.3613	18.3142	-9.5581	0.0000 
1996.618	5.4272	18.1659	-9.2834	0.0000 
1996.643	5.5316	18.0231	-8.9978	0.0000 
1996.652	5.6635	17.8967	-8.7067	0.0000 
1996.671	5.7239	17.8308	-8.4924	0.0000 
1996.691	5.7623	17.8143	-8.3716	0.0000 
1996.755	5.7513	17.8693	-8.3167	0.0000 
1996.766	5.7294	17.9077	-8.2397	0.0000 
1996.767	5.7513	17.8857	-8.0969	0.0000 
1996.773	5.7733	17.8418	-7.9321	0.0000 
1996.791	5.7953	17.7924	-7.7893	0.0000 
1996.813	5.8173	17.7429	-7.6630	0.0000 
1996.830	5.8612	17.7100	-7.5311	0.0000 
1996.852	5.9052	17.6990	-7.4158	0.0000 
1996.874	5.9436	17.7100	-7.3004	0.0000 
1996.895	5.9491	17.7209	-7.1741	0.0000 
1996.977	5.9381	17.7100	-7.0367	0.0000 
1996.983	5.9326	17.6990	-6.9049	0.0000 
1996.983	5.9106	17.6990	-6.8115	0.0000 
1996.983	5.8612	17.7374	-6.7731	0.0000 
1996.990	5.7953	17.7869	-6.7511	0.0000 
1997.010	5.7404	17.8583	-6.7126	0.0000 
1997.031	5.6964	17.9352	-6.6687	0.0000 
1997.052	5.6744	18.0011	-6.6028	0.0000 
1997.074	5.6580	18.0450	-6.5259	0.0000 
1997.096	5.6195	18.0835	-6.4600	0.0000 
1997.117	5.5646	18.1384	-6.4435	0.0000 
1997.139	5.5206	18.1879	-6.4050	0.0000 
1997.196	5.4767	18.2153	-6.3446	0.0000 
1997.206	5.4547	18.2428	-6.2787	0.0000 
1997.207	5.4492	18.2648	-6.1963	0.0000 
1997.213	5.4327	18.2922	-6.1194	0.0000 
1997.230	5.4163	18.3197	-6.0645	0.0000 
1997.249	5.3998	18.3582	-6.0425	0.0000 
1997.269	5.3723	18.3856	-6.0095	0.0000 
1997.293	5.3503	18.4076	-5.9766	0.0000 
1997.359	5.3503	18.4186	-5.9381	0.0000 
1997.368	5.3503	18.4076	-5.8887	0.0000 
1997.369	5.3394	18.3911	-5.8667	0.0000 
1997.375	5.3284	18.3801	-5.8612	0.0000 
1997.390	5.3174	18.3746	-5.8612	0.0000 
1997.413	5.3229	18.3746	-5.8502	0.0000 
1997.434	5.3284	18.3691	-5.8282	0.0000 
1997.454	5.3339	18.3746	-5.8063	0.0000 
1997.477	5.3613	18.3856	-5.7898	0.0000 
1997.492	5.3998	18.3856	-5.7568	0.0000 
1997.514	5.4327	18.3691	-5.7184	0.0000 
1997.527	5.4492	18.3691	-5.7074	0.0000 
1997.547	5.4767	18.3801	-5.7184	0.0000 
1997.628	5.5371	18.3911	-5.7019	0.0000 
1997.635	5.5920	18.3911	-5.6799	0.0000 
1997.635	5.6470	18.3966	-5.6689	0.0000 
1997.635	5.6854	18.3966	-5.6689	0.0000 
1997.647	5.7019	18.4021	-5.6799	0.0000 
1997.666	5.7294	18.4241	-5.7074	0.0000 
1997.687	5.7568	18.4460	-5.7294	0.0000 
1997.714	5.7843	18.4735	-5.7349	0.0000 
1997.726	5.8118	18.4955	-5.7513	0.0000 
1997.792	5.8447	18.5229	-5.7678	0.0000 
1997.803	5.8557	18.5449	-5.7898	0.0000 
1997.803	5.8612	18.5724	-5.8337	0.0000 
1997.809	5.8667	18.6053	-5.8722	0.0000 
1997.825	5.8722	18.6383	-5.9106	0.0000 
1997.846	5.8887	18.6768	-5.9491	0.0000 
1997.866	5.8997	18.7207	-5.9985	0.0000 
1997.888	5.9052	18.7646	-6.0535	0.0000 
1997.954	5.9161	18.8031	-6.0919	0.0000 
1997.966	5.9271	18.8306	-6.1084	0.0000 
1997.966	5.9271	18.8580	-6.1304	0.0000 
1997.972	5.9271	18.8910	-6.1578	0.0000 
1997.986	5.9271	18.9130	-6.1853	0.0000 
1998.007	5.9052	18.9294	-6.2073	0.0000 
1998.029	5.8997	18.9349	-6.2292	0.0000 
1998.051	5.9106	18.9240	-6.2292	0.0000 
1998.073	5.9106	18.9130	-6.2457	0.0000 
1998.085	5.9052	18.9020	-6.2732	0.0000 
1998.103	5.8997	18.8855	-6.2622	0.0000 
1998.177	5.9052	18.8745	-6.2457	0.0000 
1998.184	5.9326	18.8690	-6.2292	0.0000 
1998.184	5.9711	18.8580	-6.2018	0.0000 
1998.184	5.9985	18.8361	-6.1908	0.0000 
1998.208	5.9985	18.8141	-6.1908	0.0000 
1998.232	5.9985	18.8031	-6.1963	0.0000 
1998.254	6.0040	18.7866	-6.2018	0.0000 
1998.263	6.0095	18.7701	-6.2073	0.0000 
1998.283	6.0095	18.7646	-6.2238	0.0000 
1998.303	6.0260	18.7646	-6.2292	0.0000 
1998.323	6.0590	18.7646	-6.2018	0.0000 
1998.398	6.1029	18.7592	-6.1688	0.0000