StartTime: 2018-11-15 20:11:00.594
Time(s)	AngleX(deg)	AngleY(deg)	AngleZ(deg)	T(Â°) 
2136.968	9.2065	19.4183	-9.2889	0.0000 
2136.988	9.1901	19.4019	-9.3713	0.0000 
2137.008	9.1791	19.4073	-9.4757	0.0000 
2137.028	9.1516	19.4128	-9.5801	0.0000 
2137.049	9.1241	19.4073	-9.6735	0.0000 
2137.069	9.1022	19.3909	-9.7614	0.0000 
2137.162	9.0802	19.3744	-9.8438	0.0000 
2137.168	9.0527	19.3524	-9.9207	0.0000 
2137.168	9.0417	19.3359	-9.9921	0.0000 
2137.168	9.0417	19.3195	-10.0635	0.0000 
2137.168	9.0198	19.2975	-10.1349	0.0000 
2137.194	8.9923	19.2865	-10.2063	0.0000 
2137.217	8.9758	19.2810	-10.2612	0.0000 
2137.227	8.9703	19.2810	-10.3052	0.0000 
2137.248	8.9648	19.2700	-10.3491	0.0000 
2137.266	8.9154	19.2480	-10.4041	0.0000 
2137.337	8.8440	19.2151	-10.4645	0.0000 
2137.348	8.7946	19.1821	-10.5139	0.0000 
2137.349	8.7506	19.1437	-10.5469	0.0000 
2137.355	8.6957	19.0942	-10.5524	0.0000 
2137.370	8.6353	19.0393	-10.5414	0.0000 
2137.392	8.5803	18.9624	-10.5084	0.0000 
2137.412	8.5364	18.8800	-10.4535	0.0000 
2137.435	8.4979	18.7976	-10.4150	0.0000 
2137.510	8.4595	18.7152	-10.3876	0.0000 
2137.521	8.4320	18.6438	-10.3491	0.0000 
2137.522	8.4210	18.5724	-10.2942	0.0000 
2137.522	8.4045	18.5120	-10.2228	0.0000 
2137.537	8.3771	18.4406	-10.1294	0.0000 
2137.556	8.3441	18.3636	-10.0031	0.0000 
2137.572	8.3002	18.3142	-9.8932	0.0000 
2137.593	8.2507	18.3032	-9.8273	0.0000 
2137.615	8.1903	18.3362	-9.7943	0.0000 
2137.625	8.0969	18.4076	-9.8053	0.0000 
2137.644	8.0200	18.4955	-9.8218	0.0000 
2137.664	7.9816	18.5394	-9.7614	0.0000 
2137.735	7.9486	18.5614	-9.6790	0.0000 
2137.747	7.9431	18.6053	-9.6350	0.0000 
2137.748	7.9541	18.6877	-9.6240	0.0000 
2137.754	7.9761	18.7866	-9.6240	0.0000 
2137.767	7.9431	18.8910	-9.6680	0.0000 
2137.788	7.8882	18.9954	-9.7339	0.0000 
2137.809	7.8113	19.0887	-9.8053	0.0000 
2137.832	7.7014	19.1711	-9.9042	0.0000 
2137.843	7.5916	19.2371	-9.9976	0.0000 
2137.863	7.4872	19.2755	-10.1019	0.0000 
2137.882	7.4158	19.2920	-10.2063	0.0000 
2137.969	7.3718	19.2700	-10.3107	0.0000 
2137.975	7.3663	19.2426	-10.4535	0.0000 
2137.975	7.4048	19.1986	-10.6128	0.0000 
2137.975	7.4707	19.1272	-10.7776	0.0000 
2137.982	7.5641	19.0228	-10.9314	0.0000 
2138.003	7.6575	18.9130	-11.1072	0.0000 
2138.024	7.7344	18.7756	-11.3049	0.0000 
2138.047	7.7783	18.6053	-11.5082	0.0000 
2138.069	7.7783	18.4460	-11.7169	0.0000 
2138.145	7.7563	18.2922	-11.8213	0.0000 
2138.157	7.7344	18.1439	-11.8048	0.0000 
2138.157	7.8552	18.0066	-11.6785	0.0000 
2138.157	8.0145	17.9022	-11.5851	0.0000 
2138.163	8.1024	17.9022	-11.6455	0.0000 
2138.181	8.1903	17.9572	-11.7609	0.0000 
2138.201	8.3276	17.9956	-11.8652	0.0000 
2138.221	8.4650	18.0011	-11.9751	0.0000 
2138.242	8.5583	18.0011	-12.1399	0.0000 
2138.265	8.6243	17.9901	-12.3157	0.0000 
2138.288	8.6462	17.9242	-12.4036	0.0000 
2138.309	8.6078	17.7869	-12.3926	0.0000 
2138.380	8.5474	17.6276	-12.3541	0.0000 
2138.391	8.4924	17.5012	-12.3157	0.0000 
2138.391	8.4320	17.4078	-12.2443	0.0000 
2138.391	8.3496	17.3199	-12.1014	0.0000 
2138.400	8.2672	17.2266	-11.9476	0.0000 
2138.420	8.1738	17.1442	-11.8542	0.0000 
2138.440	8.0585	17.0728	-11.8323	0.0000 
2138.460	7.9486	17.0013	-11.8542	0.0000 
2138.480	7.8607	16.9025	-11.8817	0.0000 
2138.554	7.7454	16.7596	-11.8982	0.0000 
2138.566	7.6245	16.6058	-11.8872	0.0000 
2138.566	7.4982	16.4410	-11.8433	0.0000 
2138.567	7.3114	16.2982	-11.7993	0.0000 
2138.586	7.0862	16.2048	-11.7773	0.0000 
2138.599	6.9159	16.1719	-11.7279	0.0000 
2138.619	6.7566	16.1554	-11.6071	0.0000 
2138.638	6.5753	16.1389	-11.3983	0.0000 
2138.658	6.4215	16.1169	-11.1566	0.0000 
2138.731	6.2897	16.1060	-10.9039	0.0000 
2138.742	6.1578	16.1334	-10.6512	0.0000 
2138.743	6.0590	16.2213	-10.3876	0.0000 
2138.750	6.0040	16.2927	-9.9866	0.0000 
2138.765	6.0040	16.3477	-9.4757	0.0000 
2138.785	6.0260	16.3696	-8.9154	0.0000 
2138.807	6.0370	16.3971	-8.3826	0.0000 
2138.817	6.0260	16.4795	-7.9486	0.0000 
2138.837	6.0150	16.6003	-7.5751	0.0000 
2138.857	6.0205	16.7212	-7.1906	0.0000 
2138.877	6.0645	16.8365	-6.7346	0.0000 
2138.967	6.0974	16.9080	-6.2238	0.0000 
2138.974	6.1249	16.9354	-5.7184	0.0000 
2138.974	6.1414	16.9958	-5.2844	0.0000 
2138.974	6.1853	17.1057	-4.9384	0.0000 
2138.980	6.3446	17.1552	-4.4879	0.0000 
2139.001	6.5698	17.1167	-3.9111	0.0000 
2139.022	6.7346	17.0123	-3.2794	0.0000 
2139.042	6.8170	16.8970	-2.6587	0.0000 
2139.065	6.8994	16.8201	-2.0599	0.0000 
2139.141	6.9818	16.7981	-1.5601	0.0000 
2139.153	6.9928	16.8311	-1.2140	0.0000 
2139.153	6.9598	16.8750	-0.9558	0.0000 
2139.153	6.8829	16.8970	-0.7361	0.0000 
2139.160	6.8280	16.8860	-0.4779	0.0000 
2139.175	6.8390	16.8365	-0.1703	0.0000 
2139.195	6.9049	16.7871	0.1538	0.0000 
2139.217	6.9818	16.7432	0.4395	0.0000 
2139.240	7.0697	16.7267	0.6317	0.0000 
2139.263	7.1136	16.7596	0.7086	0.0000 
2139.284	7.1136	16.8475	0.7031	0.0000 
2139.294	7.0972	16.9574	0.6482	0.0000 
2139.375	7.0587	17.0728	0.5713	0.0000 
2139.381	7.0093	17.1771	0.4724	0.0000 
2139.381	6.8994	17.2595	0.3351	0.0000 
2139.381	6.7621	17.3145	0.1483	0.0000 
2139.393	6.6193	17.3254	-0.0549	0.0000 
2139.414	6.4929	17.2980	-0.2747	0.0000 
2139.434	6.3831	17.2595	-0.5383	0.0000 
2139.454	6.2677	17.2430	-0.8679	0.0000 
2139.474	6.1633	17.2430	-1.2250	0.0000 
2139.552	6.0864	17.2266	-1.5601	0.0000 
2139.562	6.0370	17.1991	-1.8622	0.0000 
2139.563	6.0095	17.1716	-2.1259	0.0000 
2139.563	6.0150	17.1497	-2.3840	0.0000 
2139.585	5.9985	17.1277	-2.6532	0.0000 
2139.598	5.9436	17.1057	-2.9553	0.0000 
2139.618	5.8612	17.0728	-3.2684	0.0000 
2139.639	5.7568	16.9739	-3.5760	0.0000 
2139.660	5.6415	16.8201	-3.9166	0.0000 
2139.683	5.5261	16.6278	-4.2957	0.0000 
2139.693	5.3833	16.3916	-4.6857	0.0000 
2139.780	5.2075	16.1334	-5.0647	0.0000 
2139.786	5.1141	15.8807	-5.3174	0.0000 
2139.786	5.1141	15.6610	-5.5261	0.0000 
2139.786	5.0977	15.4907	-5.7623	0.0000 
2139.793	5.0317	15.3809	-6.0864	0.0000 
2139.812	4.9878	15.2985	-6.3995	0.0000 
2139.834	4.9878	15.2051	-6.6632	0.0000 
2139.855	4.9878	15.1007	-6.8994	0.0000 
2139.878	4.9768	15.0238	-7.0917	0.0000 
2139.954	4.9438	14.9963	-7.2235	0.0000 
2139.965	4.9054	14.9963	-7.2784	0.0000 
2139.965	4.9054	15.0073	-7.2949	0.0000 
2139.965	4.9438	15.0073	-7.3224	0.0000 
2139.971	5.0098	14.9963	-7.3773	0.0000 
2139.991	5.0867	14.9799	-7.4707	0.0000 
2140.011	5.1581	14.9359	-7.5751	0.0000 
2140.031	5.2350	14.8700	-7.6685	0.0000 
2140.051	5.3284	14.7876	-7.7344	0.0000 
2140.073	5.4218	14.7327	-7.7728	0.0000 
2140.096	5.5316	14.7052	-7.7838	0.0000 
2140.188	5.6195	14.6997	-7.7783	0.0000 
2140.194	5.6525	14.7162	-7.7673	0.0000 
2140.194	5.6305	14.7491	-7.7344	0.0000 
2140.194	5.6195	14.7986	-7.6904	0.0000 
2140.194	5.5811	14.8480	-7.6630	0.0000 
2140.210	5.5261	14.9084	-7.6410	0.0000 
2140.229	5.4822	14.9689	-7.6025	0.0000 
2140.250	5.4492	15.0073	-7.5421	0.0000 
2140.269	5.4382	15.0403	-7.4597	0.0000 
2140.290	5.4272	15.0732	-7.3608	0.0000 
2140.359	5.4108	15.1227	-7.2290	0.0000 
2140.372	5.3888	15.1941	-7.0642	0.0000 
2140.372	5.3723	15.2930	-6.8884	0.0000 
2140.379	5.3888	15.4083	-6.7017	0.0000 
2140.390	5.4108	15.5237	-6.4984	0.0000 
2140.413	5.4163	15.6116	-6.2952	0.0000 
2140.434	5.4272	15.6720	-6.1084	0.0000 
2140.457	5.3888	15.7379	-6.0150	0.0000 
2140.467	5.3613	15.8643	-6.0040	0.0000 
2140.487	5.3778	16.0565	-6.0425	0.0000 
2140.507	5.4382	16.2323	-6.0370	0.0000 
2140.596	5.5646	16.3477	-5.9161	0.0000 
2140.602	5.6085	16.3422	-5.6470	0.0000 
2140.602	5.5811	16.2213	-5.2515	0.0000 
2140.602	5.4932	16.1224	-4.8285	0.0000 
2140.608	5.3503	16.1554	-4.5428	0.0000 
2140.630	5.1691	16.3367	-4.4769	0.0000 
2140.651	4.9384	16.5619	-4.5648	0.0000 
2140.675	4.7241	16.7816	-4.7681	0.0000 
2140.698	4.5868	16.9574	-4.9054	0.0000 
2140.773	4.6033	17.0343	-4.8615	0.0000 
2140.784	4.6912	17.0233	-4.7021	0.0000 
2140.784	4.8340	16.9958	-4.5538	0.0000 
2140.785	4.9988	16.9574	-4.4440	0.0000 
2140.791	5.1361	16.9354	-4.3945	0.0000 
2140.809	5.2295	16.9794	-4.4659	0.0000 
2140.828	5.2625	17.0837	-4.6088	0.0000 
2140.850	5.2515	17.2266	-4.7681	0.0000 
2140.873	5.2185	17.3529	-4.8999	0.0000 
2140.894	5.1746	17.4353	-4.9603	0.0000 
2140.916	5.1196	17.4628	-5.0098	0.0000 
2140.925	5.0537	17.4628	-5.1196	0.0000 
2141.006	4.9878	17.4518	-5.2734	0.0000 
2141.012	4.9329	17.4463	-5.4767	0.0000 
2141.012	4.9054	17.4353	-5.6964	0.0000 
2141.012	4.8999	17.4188	-5.9216	0.0000 
2141.025	4.9219	17.3859	-6.1523	0.0000 
2141.045	4.9713	17.3474	-6.3776	0.0000 
2141.065	5.0153	17.2870	-6.5973	0.0000 
2141.084	5.0372	17.2156	-6.8060	0.0000 
2141.105	5.0482	17.1442	-7.0258	0.0000 
2141.181	5.0757	17.0453	-7.2620	0.0000 
2141.192	5.1086	16.8640	-7.5476	0.0000 
2141.193	5.1471	16.6113	-7.9102	0.0000 
2141.193	5.2130	16.3367	-8.3496	0.0000 
2141.215	5.2240	16.0126	-8.8165	0.0000 
2141.224	5.2460	15.6665	-9.1736	0.0000 
2141.244	5.3778	15.4083	-9.3768	0.0000 
2141.264	5.5591	15.2051	-9.4702	0.0000 
2141.283	5.6305	14.9524	-9.5197	0.0000 
2141.303	5.5371	14.6832	-9.6240	0.0000 
2141.323	5.4437	14.4635	-9.7833	0.0000 
2141.413	5.3503	14.2932	-9.9866	0.0000 
2141.421	5.2130	14.1339	-10.1953	0.0000 
2141.421	5.0592	13.9966	-10.3821	0.0000 
2141.421	4.9054	13.8647	-10.4041	0.0000 
2141.427	4.7186	13.7384	-10.3271	0.0000 
2141.446	4.6088	13.6230	-10.2063	0.0000 
2141.467	4.5758	13.4802	-10.0690	0.0000 
2141.490	4.6143	13.3154	-9.9316	0.0000 
2141.510	4.6912	13.1232	-9.7943	0.0000 
2141.590	4.7626	12.9254	-9.6735	0.0000 
2141.602	4.8120	12.7222	-9.5691	0.0000 
2141.602	4.7736	12.5409	-9.4592	0.0000 
2141.602	4.7186	12.3981	-9.3054	0.0000 
2141.608	4.6747	12.2827	-9.0967	0.0000 
2141.623	4.6307	12.2003	-8.8330	0.0000 
2141.645	4.6252	12.1783	-8.5529	0.0000 
2141.669	4.6252	12.2168	-8.2837	0.0000 
2141.688	4.5978	12.3102	-8.0420	0.0000 
2141.710	4.5428	12.4585	-7.8387	0.0000 
2141.720	4.4769	12.6453	-7.6575	0.0000 
2141.740	4.4165	12.8265	-7.4872	0.0000 
2141.824	4.3671	13.0133	-7.3059	0.0000 
2141.830	4.3231	13.1946	-7.1301	0.0000 
2141.830	4.2847	13.3923	-6.9159	0.0000 
2141.830	4.2407	13.6011	-6.6577	0.0000 
2141.839	4.1803	13.8373	-6.3940	0.0000 
2141.859	4.1199	14.1504	-6.1249	0.0000 
2141.880	4.1199	14.4910	-5.8282	0.0000 
2141.902	4.1858	14.8096	-5.4932	0.0000 
2141.925	4.2792	15.1062	-5.1306	0.0000 
2142.000	4.3890	15.3754	-4.7351	0.0000 
2142.014	4.5319	15.6335	-4.2957	0.0000 
2142.014	4.7296	15.8588	-3.7958	0.0000 
2142.014	4.9823	16.0345	-3.2794	0.0000 
2142.020	5.2185	16.1334	-2.7576	0.0000 
2142.038	5.3888	16.2543	-2.3126	0.0000 
2142.058	5.5206	16.4191	-2.0160	0.0000 
2142.078	5.7019	16.5619	-1.7688	0.0000 
2142.098	5.8832	16.7212	-1.5656	0.0000 
2142.119	6.0699	16.9025	-1.3733	0.0000 
2142.142	6.2457	17.0343	-1.1261	0.0000 
2142.165	6.2512	17.0453	-0.8185	0.0000 
2142.237	6.1633	16.9794	-0.4065	0.0000 
2142.250	6.0974	16.9904	-0.0330	0.0000 
2142.250	6.0425	17.1167	0.1813	0.0000 
2142.250	5.9546	17.3035	0.2417	0.0000 
2142.259	5.7513	17.4957	0.1923	0.0000 
2142.278	5.5261	17.6385	0.1483	0.0000 
2142.297	5.3339	17.7319	0.1263	0.0000 
2142.317	5.2130	17.7814	0.1099	0.0000 
2142.337	5.2020	17.7869	0.1154	0.0000 
2142.414	5.2350	17.7704	0.1154	0.0000 
2142.424	5.2295	17.7869	0.0439	0.0000 
2142.424	5.2020	17.8638	-0.0934	0.0000 
2142.424	5.1306	17.9956	-0.2966	0.0000 
2142.446	5.0098	18.1219	-0.5109	0.0000 
2142.456	4.8505	18.2318	-0.7196	0.0000 
2142.488	4.6912	18.3197	-0.9229	0.0000 
2142.501	4.5538	18.3801	-1.1371	0.0000 
2142.519	4.4220	18.4076	-1.3568	0.0000 
2142.536	4.3121	18.3966	-1.5930	0.0000 
2142.556	4.2297	18.3582	-1.8347	0.0000 
2142.644	4.1803	18.3032	-2.0874	0.0000 
2142.650	4.1913	18.2428	-2.3511	0.0000 
2142.650	4.1968	18.1824	-2.6422	0.0000 
2142.650	4.2188	18.1384	-2.9333	0.0000 
2142.656	4.2627	18.0890	-3.1696	0.0000 
2142.678	4.2682	18.0670	-3.3673	0.0000 
2142.700	4.1968	18.0231	-3.5980	0.0000 
2142.720	4.1254	17.9242	-3.9056	0.0000 
2142.742	4.0540	17.7979	-4.3231	0.0000 
2142.820	3.9331	17.6276	-4.8010	0.0000 
2142.834	3.8507	17.3859	-5.2130	0.0000 
2142.834	3.9276	17.1497	-5.4437	0.0000 
2142.835	4.0704	17.0123	-5.6525	0.0000 
2142.841	4.1364	16.9849	-5.9106	0.0000 
2142.854	4.0485	17.0178	-6.2787	0.0000 
2142.875	3.9221	17.0782	-6.7621	0.0000 
2142.898	3.8177	17.1167	-7.2620	0.0000 
2142.919	3.7628	17.1442	-7.7179	0.0000 
2142.996	3.7408	17.1497	-8.0969	0.0000 
2143.006	3.7354	17.1661	-8.3221	0.0000 
2143.006	3.6749	17.2266	-8.4760	0.0000 
2143.007	3.5266	17.3309	-8.6188	0.0000 
2143.031	3.3673	17.4408	-8.7671	0.0000 
2143.037	3.2684	17.5232	-8.9319	0.0000 
2143.052	3.2520	17.5781	-9.1516	0.0000 
2143.073	3.2245	17.6166	-9.4263	0.0000 
2143.095	3.1476	17.6385	-9.7174	0.0000 
2143.117	3.0267	17.6276	-9.9481	0.0000 
2143.138	2.8894	17.5946	-10.0854	0.0000 
2143.160	2.8070	17.5452	-10.1404	0.0000 
2143.237	2.7740	17.5067	-10.1404	0.0000 
2143.249	2.7411	17.4847	-10.1294	0.0000 
2143.250	2.6917	17.4902	-10.0964	0.0000 
2143.250	2.6312	17.5452	-10.0360	0.0000 
2143.256	2.5763	17.6221	-9.9316	0.0000 
2143.271	2.5433	17.7155	-9.7614	0.0000 
2143.291	2.5598	17.8308	-9.5471	0.0000 
2143.314	2.6147	17.9462	-9.3164	0.0000 
2143.335	2.6752	18.0725	-9.1187	0.0000 
2143.410	2.8180	18.2538	-8.9429	0.0000 
2143.423	3.0267	18.4570	-8.7177	0.0000 
2143.423	3.2849	18.6053	-8.2837	0.0000 
2143.423	3.5266	18.7207	-7.7234	0.0000 
2143.430	3.6914	18.8361	-7.2125	0.0000 
2143.450	3.9551	19.0833	-6.7950	0.0000 
2143.470	4.2188	19.5612	-6.5863	0.0000 
2143.490	4.4165	20.0885	-6.5094	0.0000 
2143.510	4.4934	20.5444	-6.4160	0.0000 
2143.531	4.4110	20.7642	-6.0260	0.0000 
2143.553	4.3945	20.7367	-5.2734	0.0000 
2143.645	4.3835	20.6708	-4.5593	0.0000 
2143.653	4.3671	20.6104	-4.1199	0.0000 
2143.653	4.2078	20.5774	-4.0540	0.0000 
2143.653	3.9771	20.5609	-4.2133	0.0000 
2143.654	3.7463	20.5444	-4.4275	0.0000 
2143.677	3.6200	20.4895	-4.5593	0.0000 
2143.700	3.5706	20.3796	-4.5978	0.0000 
2143.709	3.6310	20.2478	-4.5758	0.0000 
2143.729	3.7134	20.1434	-4.5703	0.0000 
2143.749	3.7738	20.0665	-4.5813	0.0000 
2143.822	3.7463	20.0446	-4.6747	0.0000 
2143.834	3.6530	20.0665	-4.8450	0.0000 
2143.835	3.5431	20.1160	-5.0208	0.0000 
2143.835	3.4552	20.1379	-5.1471	0.0000 
2143.855	3.3838	20.1105	-5.2405	0.0000 
2143.877	3.3289	20.0500	-5.3668	0.0000 
2143.898	3.3124	19.9292	-5.5371	0.0000 
2143.908	3.3069	19.7699	-5.7623	0.0000 
2143.928	3.3398	19.5996	-6.0425	0.0000 
2143.948	3.3948	19.4348	-6.3446	0.0000 
2143.968	3.4717	19.2755	-6.6412	0.0000 
2144.055	3.5651	19.1272	-6.9324	0.0000 
2144.061	3.6584	18.9899	-7.2290	0.0000 
2144.061	3.6859	18.8800	-7.5861	0.0000 
2144.061	3.6639	18.7537	-7.9706	0.0000 
2144.067	3.6365	18.5999	-8.3496	0.0000 
2144.087	3.5760	18.4131	-8.7231	0.0000 
2144.110	3.5870	18.1989	-8.9703	0.0000 
2144.133	3.7848	18.1000	-9.1187	0.0000 
2144.155	3.9551	18.0945	-9.2834	0.0000 
2144.232	3.9496	18.1439	-9.5416	0.0000 
2144.243	3.8013	18.1714	-9.8822	0.0000 
2144.243	3.6035	18.1879	-10.3107	0.0000 
2144.243	3.4772	18.1989	-10.7831	0.0000 
2144.249	3.4277	18.1934	-11.2061	0.0000 
2144.266	3.4003	18.1439	-11.4587	0.0000 
2144.286	3.3398	18.1000	-11.4752	0.0000 
2144.308	3.2410	18.0835	-11.4093	0.0000 
2144.331	3.1531	18.0890	-11.3269	0.0000 
2144.353	3.1366	18.0945	-11.2445	0.0000 
2144.374	3.1915	18.0890	-11.2061	0.0000 
2144.385	3.2190	18.0505	-11.2170	0.0000 
2144.470	3.1915	17.9846	-11.2555	0.0000 
2144.480	3.1366	17.9077	-11.2280	0.0000 
2144.481	3.0817	17.8033	-11.0687	0.0000 
2144.481	3.0927	17.6935	-10.7941	0.0000 
2144.487	3.1366	17.6056	-10.4590	0.0000 
2144.504	3.1641	17.5507	-10.1184	0.0000 
2144.524	3.1586	17.5287	-9.7723	0.0000 
2144.547	3.1036	17.5397	-9.4208	0.0000 
2144.570	3.0817	17.5781	-9.0253	0.0000 
2144.658	3.0872	17.6385	-8.5913	0.0000 
2144.658	3.1586	17.7045	-8.1079	0.0000 
2144.658	3.2739	17.7539	-7.5861	0.0000 
2144.658	3.4332	17.8143	-7.0532	0.0000 
2144.665	3.6035	17.8967	-6.5204	0.0000 
2144.683	3.8013	18.0176	-5.9711	0.0000 
2144.702	3.9771	18.2098	-5.4163	0.0000 
2144.724	4.1418	18.3801	-4.8175	0.0000 
2144.745	4.2517	18.5065	-4.2133	0.0000 
2144.821	4.3890	18.6658	-3.6859	0.0000 
2144.832	4.5978	18.9734	-3.3289	0.0000 
2144.832	4.6912	19.3634	-3.1915	0.0000 
2144.832	4.6912	19.7424	-3.2025	0.0000 
2144.842	4.6252	19.9677	-3.0212	0.0000 
2144.863	4.5978	19.9292	-2.4115	0.0000 
2144.881	4.6307	19.7534	-1.6644	0.0000 
2144.901	4.6198	19.5667	-1.1096	0.0000 
2144.921	4.4604	19.4128	-0.8569	0.0000 
2144.942	4.2023	19.3195	-0.8405	0.0000 
2144.964	3.9661	19.2535	-0.9283	0.0000 
2145.054	3.8397	19.1711	-0.9613	0.0000 
2145.060	3.8287	19.0558	-0.9009	0.0000 
2145.060	3.9111	18.9569	-0.8514	0.0000 
2145.060	4.0320	18.9185	-0.8954	0.0000 
2145.067	4.0924	18.9459	-1.0547	0.0000 
2145.088	4.0485	19.0338	-1.3403	0.0000 
2145.112	3.9716	19.1711	-1.6644	0.0000 
2145.122	3.9331	19.3304	-1.9611	0.0000 
2145.141	3.9056	19.4458	-2.2137	0.0000 
2145.160	3.8287	19.5282	-2.5214	0.0000 
2145.233	3.7024	19.6051	-2.9443	0.0000 
2145.244	3.5870	19.6765	-3.4222	0.0000 
2145.244	3.4991	19.7095	-3.9111	0.0000 
2145.251	3.4607	19.7205	-4.3781	0.0000 
2145.266	3.4991	19.7260	-4.8340	0.0000 
2145.289	3.5706	19.7479	-5.2844	0.0000 
2145.309	3.6584	19.7754	-5.7184	0.0000 
2145.319	3.7354	19.8083	-6.1578	0.0000 
2145.340	3.7628	19.8193	-6.6138	0.0000 
2145.359	3.7573	19.7809	-7.0972	0.0000 
2145.380	3.7189	19.6326	-7.6135	0.0000 
2145.399	3.6804	19.4073	-8.2068	0.0000 
2145.474	3.6749	19.1547	-8.8330	0.0000 
2145.485	3.7793	18.8800	-9.3384	0.0000 
2145.485	4.0320	18.6658	-9.6515	0.0000 
2145.485	4.1583	18.4900	-9.9261	0.0000 
2145.508	4.0704	18.3362	-10.2118	0.0000 
2145.529	3.9661	18.3032	-10.5853	0.0000 
2145.538	3.9606	18.3362	-10.9973	0.0000 
2145.558	3.9111	18.3582	-11.4148	0.0000 
2145.578	3.8507	18.3801	-11.8103	0.0000 
2145.652	3.7299	18.4186	-12.1069	0.0000 
2145.664	3.5486	18.4570	-12.2937	0.0000 
2145.665	3.4497	18.4680	-12.3761	0.0000 
2145.665	3.4552	18.4570	-12.4200	0.0000 
2145.685	3.5431	18.4351	-12.4750	0.0000 
2145.708	3.6200	18.4241	-12.5848	0.0000 
2145.717	3.6255	18.4131	-12.7112	0.0000 
2145.737	3.5706	18.4021	-12.8046	0.0000 
2145.756	3.5046	18.3801	-12.8156	0.0000 
2145.777	3.4332	18.3472	-12.7826	0.0000 
2145.797	3.3453	18.3362	-12.7551	0.0000 
2145.888	3.2574	18.3472	-12.7332	0.0000 
2145.894	3.1970	18.3691	-12.6672	0.0000 
2145.894	3.1421	18.3856	-12.5464	0.0000 
2145.894	3.1036	18.3911	-12.3431	0.0000 
2145.901	3.1366	18.3856	-12.0300	0.0000 
2145.921	3.2520	18.3691	-11.6455	0.0000 
2145.944	3.4003	18.3911	-11.2775	0.0000 
2145.968	3.5321	18.4515	-10.9863	0.0000 
2145.975	3.6365	18.5339	-10.7446	0.0000 
2145.996	3.7793	18.6548	-10.4865	0.0000 
2146.068	3.9880	18.7592	-10.0909	0.0000 
2146.080	4.2737	18.8251	-9.4867	0.0000 
2146.080	4.6198	18.8416	-8.7177	0.0000 
2146.080	4.9438	18.8580	-8.0035	0.0000 
2146.101	5.2515	18.9075	-7.3993	0.0000 
2146.123	5.5426	19.1821	-7.0148	0.0000 
2146.144	5.7788	19.5831	-6.7511	0.0000 
2146.154	5.8557	19.9567	-6.4984	0.0000 
2146.174	5.8228	20.1160	-6.0425	0.0000 
2146.194	5.8228	20.0116	-5.2679	0.0000 
2146.213	5.8557	19.8523	-4.5044	0.0000 
2146.302	5.8502	19.7205	-3.9716	0.0000 
2146.309	5.7568	19.6545	-3.6639	0.0000 
2146.309	5.5536	19.6710	-3.5706	0.0000 
2146.309	5.3558	19.6875	-3.5156	0.0000 
2146.316	5.2185	19.6820	-3.4387	0.0000 
2146.336	5.1581	19.6600	-3.3508	0.0000 
2146.358	5.1965	19.6381	-3.2849	0.0000 
2146.381	5.2185	19.6271	-3.2684	0.0000 
2146.403	5.1965	19.6381	-3.2904	0.0000 
2146.481	5.1031	19.6875	-3.3344	0.0000 
2146.492	4.9878	19.7919	-3.4058	0.0000 
2146.492	4.8724	19.9072	-3.4882	0.0000 
2146.492	4.7571	20.0006	-3.5651	0.0000 
2146.498	4.6198	20.0500	-3.6859	0.0000 
2146.515	4.4769	20.0830	-3.8617	0.0000 
2146.536	4.3561	20.0940	-4.0704	0.0000 
2146.558	4.2847	20.0720	-4.2957	0.0000 
2146.581	4.2352	20.0061	-4.5374	0.0000 
2146.658	4.2133	19.9347	-4.7900	0.0000 
2146.669	4.2078	19.8633	-5.0537	0.0000 
2146.669	4.1968	19.8029	-5.3174	0.0000 
2146.669	4.1858	19.7534	-5.5811	0.0000 
2146.676	4.1693	19.7040	-5.8777	0.0000 
2146.692	4.1473	19.6490	-6.2292	0.0000 
2146.714	4.1254	19.5776	-6.6357	0.0000 
2146.734	4.0540	19.4293	-7.1082	0.0000 
2146.756	4.0265	19.2371	-7.6245	0.0000 
2146.778	4.0265	19.0118	-8.1903	0.0000 
2146.801	4.0155	18.7592	-8.7341	0.0000 
2146.813	4.0979	18.5394	-9.1791	0.0000 
2146.903	4.2847	18.4296	-9.4977	0.0000 
2146.914	4.4220	18.3472	-9.7614	0.0000 
2146.915	4.3671	18.2758	-10.0745	0.0000 
2146.915	4.2847	18.2703	-10.4700	0.0000 
2146.915	4.2572	18.2703	-10.9039	0.0000 
2146.935	4.2188	18.2428	-11.2994	0.0000 
2146.958	4.1858	18.2318	-11.6290	0.0000 
2146.978	4.1913	18.2428	-11.8597	0.0000 
2146.990	4.1693	18.2703	-12.0190	0.0000 
2147.082	4.1418	18.3197	-12.1729	0.0000 
2147.093	4.1583	18.3691	-12.2882	0.0000 
2147.093	4.2023	18.3856	-12.3706	0.0000 
2147.093	4.2407	18.3966	-12.4640	0.0000 
2147.099	4.2242	18.3966	-12.6068	0.0000 
2147.116	4.1638	18.3801	-12.7771	0.0000 
2147.138	4.0869	18.3636	-12.9529	0.0000 
2147.149	3.9935	18.3362	-13.1122	0.0000 
2147.169	3.9276	18.3032	-13.1946	0.0000 
2147.188	3.8837	18.2593	-13.2056	0.0000 
2147.260	3.8782	18.2043	-13.1451	0.0000 
2147.270	3.8837	18.1549	-13.0298	0.0000 
2147.271	3.9166	18.1219	-12.8650	0.0000 
2147.277	3.9496	18.1165	-12.6727	0.0000 
2147.293	3.9771	18.1274	-12.4420	0.0000 
2147.315	4.0430	18.1714	-12.2058	0.0000 
2147.338	4.1254	18.2318	-11.9366	0.0000 
2147.348	4.2078	18.2593	-11.6180	0.0000 
2147.367	4.2517	18.2758	-11.2775	0.0000 
2147.387	4.3121	18.3197	-10.8929	0.0000 
2147.407	4.3890	18.3856	-10.4095	0.0000 
2147.496	4.5099	18.4460	-9.7504	0.0000 
2147.511	4.7131	18.4955	-8.8385	0.0000 
2147.511	4.9329	18.5504	-7.8333	0.0000 
2147.511	5.1636	18.6768	-6.8774	0.0000 
2147.519	5.3998	18.9899	-6.0919	0.0000 
2147.530	5.5096	19.4238	-5.5316	0.0000 
2147.552	5.5646	19.7864	-4.9823	0.0000 
2147.576	5.6030	20.0006	-4.3121	0.0000 
2147.586	5.6525	20.0061	-3.4167	0.0000 
2147.673	5.7074	19.8798	-2.4445	0.0000 
2147.685	5.6415	19.7644	-1.6699	0.0000 
2147.685	5.5206	19.7095	-1.0931	0.0000 
2147.685	5.3448	19.6765	-0.6592	0.0000 
2147.691	5.1636	19.6490	-0.3186	0.0000 
2147.705	5.0537	19.6271	0.0165	0.0000 
2147.726	5.0372	19.5721	0.3955	0.0000 
2147.749	5.0647	19.5062	0.7471	0.0000 
2147.770	5.1086	19.4623	1.0547	0.0000 
2147.793	5.1526	19.4568	1.3239	0.0000 
2147.805	5.1361	19.4897	1.5161	0.0000 
2147.824	5.0757	19.5776	1.6425	0.0000 
2147.908	5.0317	19.6875	1.7578	0.0000 
2147.914	5.0043	19.7864	1.8842	0.0000 
2147.914	4.9823	19.8688	1.9885	0.0000 
2147.914	4.9384	19.9182	2.0654	0.0000 
2147.924	4.9219	19.9402	2.1039	0.0000 
2147.945	4.9548	19.9402	2.1039	0.0000 
2147.964	5.0098	19.9017	2.0544	0.0000 
2147.984	5.0922	19.8413	1.9885	0.0000 
2148.007	5.2075	19.7644	1.9171	0.0000 
2148.088	5.3448	19.6765	1.8567	0.0000 
2148.105	5.4877	19.6051	1.7633	0.0000 
2148.105	5.5756	19.5447	1.5930	0.0000 
2148.105	5.6030	19.4293	1.3458	0.0000 
2148.111	5.6085	19.2590	1.0382	0.0000 
2148.123	5.5975	19.0558	0.7031	0.0000 
2148.144	5.6635	18.8031	0.5164	0.0000 
2148.166	5.8942	18.5724	0.5164	0.0000 
2148.189	6.0754	18.4241	0.5603	0.0000 
2148.208	6.1194	18.3032	0.5548	0.0000 
2148.231	6.0095	18.2648	0.4010	0.0000 
2148.252	5.8942	18.2977	0.1044	0.0000 
2148.324	5.7788	18.3472	-0.2252	0.0000 
2148.336	5.6140	18.3856	-0.5109	0.0000 
2148.336	5.4382	18.4351	-0.6866	0.0000 
2148.336	5.1910	18.4955	-0.7361	0.0000 
2148.343	4.9164	18.5559	-0.7086	0.0000 
2148.361	4.7241	18.6218	-0.6372	0.0000 
2148.381	4.6307	18.6713	-0.5603	0.0000 
2148.401	4.5978	18.6987	-0.5328	0.0000 
2148.423	4.5044	18.7207	-0.5823	0.0000 
2148.498	4.3561	18.7262	-0.6647	0.0000 
2148.508	4.1968	18.7097	-0.6976	0.0000 
2148.509	4.0704	18.6658	-0.6647	0.0000 
2148.509	3.9935	18.6273	-0.5878	0.0000 
2148.532	3.9716	18.5944	-0.4944	0.0000 
2148.540	3.9716	18.5724	-0.4010	0.0000 
2148.560	3.9551	18.5559	-0.2802	0.0000 
2148.580	3.9496	18.5504	-0.1318	0.0000 
2148.600	3.9606	18.5669	0.0055	0.0000 
2148.620	3.9771	18.5889	0.1318	0.0000 
2148.641	4.0375	18.6108	0.2472	0.0000 
2148.733	4.1583	18.6218	0.3461	0.0000 
2148.739	4.2957	18.6493	0.4065	0.0000 
2148.739	4.4714	18.6987	0.4779	0.0000 
2148.739	4.7131	18.7317	0.6537	0.0000 
2148.745	5.0372	18.7372	0.9613	0.0000 
2148.766	5.3778	18.7317	1.3458	0.0000 
2148.787	5.7184	18.6987	1.6974	0.0000 
2148.808	6.0699	18.7537	1.9391	0.0000 
2148.818	6.3885	18.9294	2.0270	0.0000 
2148.907	6.6083	19.1217	2.0050	0.0000 
2148.913	6.7346	19.2645	1.9116	0.0000 
2148.913	6.7511	19.3030	1.8951	0.0000 
2148.913	6.7786	19.2645	2.0599	0.0000 
2148.920	6.8390	19.2041	2.2852	0.0000 
2148.939	6.8719	19.1327	2.4335	0.0000 
2148.962	6.7950	19.0833	2.4060	0.0000 
2148.984	6.6357	19.0833	2.2357	0.0000 
2149.006	6.4270	19.1107	1.9720	0.0000 
2149.018	6.2402	19.1492	1.6809	0.0000 
2149.037	6.1194	19.1931	1.3513	0.0000 
2149.057	6.0480	19.2316	1.0052	0.0000 
2149.147	6.0205	19.2920	0.6317	0.0000 
2149.153	6.0040	19.3634	0.2417	0.0000 
2149.153	5.9711	19.4568	-0.1593	0.0000 
2149.153	5.9271	19.5721	-0.5658	0.0000 
2149.159	5.8612	19.7040	-0.9833	0.0000 
2149.179	5.8008	19.8248	-1.4008	0.0000 
2149.202	5.7184	19.9237	-1.8457	0.0000 
2149.224	5.5975	19.9841	-2.3126	0.0000 
2149.247	5.4822	19.9951	-2.7905	0.0000 
2149.325	5.3723	19.9731	-3.3014	0.0000 
2149.336	5.3284	19.9347	-3.8123	0.0000 
2149.336	5.3668	19.8578	-4.2297	0.0000 
2149.336	5.4767	19.7534	-4.5428	0.0000 
2149.344	5.6195	19.6655	-4.7791	0.0000 
2149.357	5.7843	19.6271	-4.9878	0.0000 
2149.379	5.9216	19.6216	-5.1801	0.0000 
2149.400	5.9930	19.5776	-5.3723	0.0000 
2149.424	6.0535	19.4348	-5.5426	0.0000 
2149.498	6.1194	19.2700	-5.7513	0.0000 
2149.509	6.1743	19.0668	-5.9601	0.0000 
2149.509	6.3391	18.8416	-6.0370	0.0000 
2149.509	6.6577	18.6493	-5.9106	0.0000 
2149.515	6.8665	18.4351	-5.7733	0.0000 
2149.534	6.7950	18.2373	-5.8392	0.0000 
2149.554	6.6632	18.1439	-6.0699	0.0000 
2149.575	6.5918	18.1329	-6.3062	0.0000 
2149.597	6.5643	18.1110	-6.4325	0.0000 
2149.618	6.5149	18.1000	-6.4655	0.0000 
2149.642	6.4435	18.1439	-6.4655	0.0000 
2149.738	6.2457	18.2318	-6.4545	0.0000 
2149.744	5.9985	18.3307	-6.4325	0.0000 
2149.744	5.8228	18.4021	-6.3721	0.0000 
2149.744	5.7513	18.4515	-6.3007	0.0000 
2149.744	5.7513	18.4735	-6.2457	0.0000 
2149.753	5.7623	18.4625	-6.1963	0.0000 
2149.773	5.7294	18.3966	-6.1194	0.0000 
2149.793	5.6580	18.3087	-5.9875	0.0000 
2149.813	5.5865	18.2428	-5.8118	0.0000 
2149.835	5.5371	18.1989	-5.5646	0.0000 
2149.913	5.5042	18.1769	-5.2789	0.0000 
2149.923	5.4877	18.1659	-4.9603	0.0000 
2149.924	5.4767	18.1879	-4.6362	0.0000 
2149.924	5.4492	18.2428	-4.3176	0.0000 
2149.932	5.4218	18.3087	-4.0155	0.0000 
2149.953	5.4272	18.3636	-3.7134	0.0000 
2149.972	5.4602	18.3911	-3.4497	0.0000 
2149.992	5.5096	18.4021	-3.2355	0.0000 
2150.012	5.5701	18.4131	-3.0432	0.0000 
2150.034	5.6525	18.4296	-2.8015	0.0000 
2150.056	5.8008	18.4241	-2.4554	0.0000 
2150.145	5.9546	18.4241	-2.0654	0.0000 
2150.151	6.0754	18.4241	-1.7029	0.0000 
2150.151	6.2018	18.4406	-1.3953	0.0000 
2150.151	6.3446	18.5559	-1.2250	0.0000 
2150.151	6.3666	18.7537	-1.2579	0.0000 
2150.177	6.3501	18.9075	-1.3348	0.0000 
2150.199	6.2952	18.9899	-1.2799	0.0000 
2150.223	6.2292	18.9514	-0.9393	0.0000 
2150.230	6.1469	18.8470	-0.5219	0.0000 
2150.250	5.9930	18.7646	-0.2527	0.0000 
2150.319	5.7898	18.7317	-0.1703	0.0000 
2150.331	5.4932	18.7372	-0.2252	0.0000 
2150.331	5.1965	18.7262	-0.2802	0.0000 
2150.337	4.9658	18.6877	-0.3021	0.0000 
2150.351	4.8340	18.6383	-0.3461	0.0000 
2150.374	4.7516	18.5999	-0.4449	0.0000 
2150.396	4.7186	18.5889	-0.6042	0.0000 
2150.418	4.6967	18.5779	-0.7635	0.0000 
2150.431	4.6582	18.5669	-0.9119	0.0000 
2150.449	4.6307	18.5779	-1.0712	0.0000 
2150.468	4.5923	18.6328	-1.2360	0.0000 
2150.561	4.5648	18.6877	-1.3843	0.0000 
2150.567	4.5483	18.7317	-1.5436	0.0000 
2150.567	4.5264	18.7537	-1.7249	0.0000 
2150.567	4.5044	18.7427	-1.9611	0.0000 
2150.574	4.4934	18.6932	-2.2302	0.0000 
2150.594	4.5428	18.6163	-2.4774	0.0000 
2150.616	4.6637	18.5120	-2.6147	0.0000 
2150.629	4.8395	18.3911	-2.6532	0.0000 
2150.648	5.0317	18.2867	-2.6257	0.0000 
2150.736	5.1746	18.1824	-2.6147	0.0000 
2150.742	5.2789	18.0615	-2.6587	0.0000 
2150.742	5.3613	17.8967	-2.7576	0.0000 
2150.742	5.5042	17.6880	-2.7960	0.0000 
2150.748	5.7458	17.4847	-2.6971	0.0000 
2150.769	5.9821	17.3145	-2.5598	0.0000 
2150.791	6.0425	17.1936	-2.5269	0.0000 
2150.813	5.9656	17.1387	-2.6807	0.0000 
2150.835	5.8832	17.1826	-2.9333	0.0000 
2150.847	5.8447	17.2430	-3.1476	0.0000 
2150.867	5.7953	17.2925	-3.2904	0.0000 
2150.887	5.7513	17.3474	-3.3563	0.0000 
2150.970	5.6030	17.4463	-3.4167	0.0000 
2150.976	5.3284	17.6001	-3.5431	0.0000 
2150.976	5.0372	17.7704	-3.7463	0.0000 
2150.976	4.8175	17.9022	-3.9331	0.0000 
2150.986	4.6857	17.9626	-4.1089	0.0000 
2151.006	4.5538	17.9791	-4.2957	0.0000 
2151.026	4.4000	17.9681	-4.4824	0.0000 
2151.047	4.2242	17.9297	-4.6362	0.0000 
2151.069	4.0540	17.8802	-4.7296	0.0000 
2151.143	3.9221	17.8528	-4.7406	0.0000 
2151.153	3.8232	17.8473	-4.6857	0.0000 
2151.154	3.7463	17.8693	-4.5648	0.0000 
2151.154	3.6859	17.9077	-4.3945	0.0000 
2151.165	3.6365	17.9626	-4.2078	0.0000 
2151.185	3.5706	18.0286	-4.0320	0.0000 
2151.205	3.5266	18.0890	-3.8892	0.0000 
2151.224	3.5101	18.1384	-3.8068	0.0000 
2151.244	3.5541	18.1494	-3.7573	0.0000 
2151.265	3.6749	18.1494	-3.7189	0.0000 
2151.285	3.8892	18.1110	-3.5596	0.0000 
2151.375	4.1418	18.0505	-3.2465	0.0000 
2151.382	4.4055	18.0121	-2.8510	0.0000 
2151.382	4.7626	18.0176	-2.4225	0.0000 
2151.382	5.0757	18.1439	-2.0984	0.0000 
2151.388	5.2515	18.3197	-1.9116	0.0000 
2151.407	5.3558	18.4790	-1.7523	0.0000 
2151.430	5.4053	18.5724	-1.4447	0.0000 
2151.453	5.3998	18.4955	-0.8295	0.0000 
2151.464	5.4108	18.3142	-0.1483	0.0000 
2151.551	5.4108	18.1274	0.3461	0.0000 
2151.564	5.3448	18.0011	0.6207	0.0000 
2151.564	5.1855	17.9517	0.7416	0.0000 
2151.564	4.9933	17.9297	0.8569	0.0000 
2151.571	4.8395	17.8912	1.0327	0.0000 
2151.584	4.7461	17.8473	1.2195	0.0000 
2151.607	4.6912	17.8693	1.2854	0.0000 
2151.628	4.6637	17.9572	1.2360	0.0000 
2151.651	4.6362	18.0835	1.1096	0.0000 
2151.662	4.6033	18.2263	0.9283	0.0000 
2151.682	4.5978	18.3856	0.7251	0.0000 
2151.701	4.6198	18.5449	0.5273	0.0000 
2151.784	4.6472	18.6768	0.3296	0.0000 
2151.791	4.6637	18.7866	0.1044	0.0000 
2151.793	4.6472	18.8525	-0.2142	0.0000 
2151.793	4.6088	18.8965	-0.6317	0.0000 
2151.801	4.6143	18.9349	-1.1261	0.0000 
2151.820	4.6582	18.9514	-1.6315	0.0000 
2151.840	4.7791	18.9240	-2.0599	0.0000 
2151.864	4.9548	18.8635	-2.4005	0.0000 
2151.884	5.1416	18.7921	-2.6642	0.0000 
2151.959	5.2734	18.7042	-2.9388	0.0000 
2151.970	5.3723	18.6163	-3.2904	0.0000 
2151.971	5.4163	18.5284	-3.7573	0.0000 
2151.971	5.4712	18.3801	-4.1748	0.0000 
2151.980	5.6854	18.2373	-4.3616	0.0000 
2151.999	5.8612	18.0505	-4.4495	0.0000 
2152.019	5.8392	17.8033	-4.5868	0.0000 
2152.039	5.6964	17.7045	-4.8999	0.0000 
2152.059	5.5975	17.7429	-5.2515	0.0000 
2152.135	5.4987	17.8253	-5.5426	0.0000 
2152.146	5.3503	17.9681	-5.8392	0.0000 
2152.148	5.1251	18.1219	-6.1029	0.0000 
2152.148	4.8175	18.2648	-6.3007	0.0000 
2152.169	4.5374	18.3911	-6.3940	0.0000 
2152.180	4.3835	18.4790	-6.3995	0.0000 
2152.199	4.3451	18.5339	-6.3940	0.0000 
2152.219	4.3726	18.5504	-6.3831	0.0000 
2152.239	4.3726	18.5339	-6.3721	0.0000 
2152.258	4.3176	18.4570	-6.2622	0.0000 
2152.279	4.2352	18.3746	-6.0645	0.0000 
2152.371	4.1803	18.3197	-5.7623	0.0000 
2152.377	4.1364	18.2758	-5.3998	0.0000 
2152.377	4.0869	18.2538	-5.0153	0.0000 
2152.377	4.0704	18.2813	-4.6198	0.0000 
2152.383	4.1254	18.3362	-4.1583	0.0000 
2152.405	4.2023	18.3856	-3.6584	0.0000 
2152.425	4.2847	18.4296	-3.2025	0.0000 
2152.438	4.4055	18.4625	-2.8510	0.0000 
2152.457	4.5813	18.4790	-2.6093	0.0000 
2152.493	4.7626	18.4845	-2.4554	0.0000 
2152.503	5.0482	18.4515	-2.2357	0.0000 
2152.517	5.3833	18.3746	-1.8896	0.0000 
2152.598	5.7623	18.3142	-1.4996	0.0000 
2152.608	6.0809	18.4460	-1.2799	0.0000 
2152.609	6.1908	18.7097	-1.3239	0.0000 
2152.609	6.2567	18.9624	-1.4282	0.0000 
2152.616	6.2402	19.1217	-1.3678	0.0000 
2152.636	6.2128	19.1162	-1.0437	0.0000 
2152.656	6.2238	19.0283	-0.6757	0.0000 
2152.676	6.2512	18.9240	-0.4120	0.0000 
2152.697	6.1523	18.8470	-0.3516	0.0000 
2152.773	5.9436	18.7921	-0.4175	0.0000 
2152.784	5.7458	18.7317	-0.4889	0.0000 
2152.784	5.6085	18.6603	-0.5493	0.0000 
2152.784	5.5426	18.5999	-0.6592	0.0000 
2152.795	5.5261	18.5834	-0.8514	0.0000 
2152.815	5.5042	18.5944	-1.0986	0.0000 
2152.835	5.4657	18.6218	-1.3623	0.0000 
2152.855	5.4108	18.6823	-1.6534	0.0000 
2152.874	5.3394	18.7646	-1.9775	0.0000 
2152.896	5.2515	18.8580	-2.3456	0.0000 
2152.916	5.1691	18.9514	-2.7466	0.0000 
2153.007	5.0592	19.0118	-3.1915	0.0000 
2153.016	4.9603	19.0393	-3.6914	0.0000 
2153.016	4.9109	19.0283	-4.1913	0.0000 
2153.016	4.9603	18.9844	-4.6362	0.0000 
2153.016	5.0702	18.9185	-5.0153	0.0000 
2153.039	5.2295	18.8525	-5.2954	0.0000 
2153.061	5.4108	18.7921	-5.5042	0.0000 
2153.083	5.5701	18.7152	-5.6854	0.0000 
2153.096	5.6854	18.6603	-5.9271	0.0000 
2153.184	5.7568	18.5889	-6.2183	0.0000 
2153.196	5.9326	18.4955	-6.3885	0.0000 
2153.196	6.2238	18.4076	-6.3940	0.0000 
2153.196	6.3885	18.2593	-6.3831	0.0000 
2153.202	6.3171	18.1165	-6.5314	0.0000 
2153.218	6.1633	18.1055	-6.8610	0.0000 
2153.240	6.0864	18.1824	-7.1796	0.0000 
2153.261	6.0260	18.2703	-7.4103	0.0000 
2153.274	5.9821	18.3307	-7.4982	0.0000 
2153.292	5.8447	18.3856	-7.5476	0.0000 
2153.364	5.5756	18.4845	-7.6465	0.0000 
2153.374	5.3339	18.6438	-7.7893	0.0000 
2153.374	5.2185	18.7811	-7.8552	0.0000 
2153.381	5.1855	18.8470	-7.8387	0.0000 
2153.397	5.1855	18.8525	-7.8168	0.0000 
2153.419	5.1691	18.8086	-7.7893	0.0000 
2153.440	5.1031	18.7262	-7.7124	0.0000 
2153.451	5.0153	18.6438	-7.5531	0.0000 
2153.470	4.9823	18.5944	-7.3059	0.0000 
2153.490	5.0098	18.5559	-6.9763	0.0000 
2153.510	5.0372	18.5339	-6.6302	0.0000 
2153.598	5.0482	18.5669	-6.2787	0.0000 
2153.604	5.0427	18.6438	-5.8997	0.0000 
2153.604	5.0812	18.7372	-5.4822	0.0000 
2153.604	5.1801	18.8416	-5.0702	0.0000 
2153.611	5.3119	18.9514	-4.7351	0.0000 
2153.631	5.4272	19.0833	-4.5538	0.0000 
2153.650	5.5371	19.2535	-4.4385	0.0000 
2153.674	5.7953	19.3469	-4.1034	0.0000 
2153.697	6.0974	19.3634	-3.5870	0.0000 
2153.769	6.4655	19.3579	-3.0322	0.0000 
2153.780	6.8060	19.4843	-2.6257	0.0000 
2153.781	6.8829	19.7369	-2.5543	0.0000 
2153.781	6.8665	19.9567	-2.6257	0.0000 
2153.789	6.7896	20.0446	-2.6038	0.0000 
2153.809	6.7676	19.9567	-2.2302	0.0000 
2153.829	6.8390	19.7150	-1.6205	0.0000 
2153.849	6.9543	19.4513	-1.0712	0.0000 
2153.874	7.0148	19.2535	-0.7361	0.0000 
2153.891	6.9653	19.1217	-0.5988	0.0000 
2153.914	6.8665	19.0393	-0.5713	0.0000 
2154.004	6.7566	18.9954	-0.6042	0.0000 
2154.010	6.6907	18.9294	-0.6207	0.0000 
2154.010	6.6577	18.8745	-0.6372	0.0000 
2154.010	6.6028	18.8580	-0.6976	0.0000 
2154.011	6.4929	18.8745	-0.8350	0.0000 
2154.037	6.3446	18.9240	-1.0107	0.0000 
2154.048	6.2128	19.0173	-1.2140	0.0000 
2154.068	6.1633	19.1492	-1.4392	0.0000 
2154.088	6.1359	19.2755	-1.6974	0.0000 
2154.107	6.0809	19.3964	-2.0105	0.0000 
2154.180	6.0095	19.4897	-2.3895	0.0000 
2154.190	5.9381	19.5447	-2.8070	0.0000 
2154.190	5.8887	19.5667	-3.2629	0.0000 
2154.196	5.8667	19.5612	-3.7408	0.0000 
2154.213	5.8942	19.5337	-4.1968	0.0000 
2154.237	5.9656	19.4843	-4.5868	0.0000 
2154.255	6.1139	19.4128	-4.8779	0.0000 
2154.277	6.2897	19.2975	-5.1086	0.0000 
2154.286	6.4600	19.1272	-5.3339	0.0000 
2154.306	6.6632	18.9514	-5.5920	0.0000 
2154.326	6.8445	18.7701	-5.9052	0.0000 
2154.413	7.0917	18.5504	-6.1139	0.0000 
2154.419	7.4872	18.3527	-6.1469	0.0000 
2154.419	7.7454	18.1549	-6.1688	0.0000 
2154.419	7.7014	18.0066	-6.3281	0.0000 
2154.425	7.5037	18.0396	-6.7181	0.0000 
2154.445	7.3663	18.1714	-7.1686	0.0000 
2154.467	7.2620	18.2593	-7.4982	0.0000 
2154.490	7.1576	18.3087	-7.7014	0.0000 
2154.510	7.0038	18.3472	-7.7948	0.0000 
2154.591	6.7401	18.3746	-7.8717	0.0000 
2154.602	6.4490	18.4351	-7.9926	0.0000 
2154.602	6.2567	18.4790	-8.1024	0.0000 
2154.602	6.1853	18.4845	-8.1573	0.0000 
2154.608	6.1578	18.4406	-8.1628	0.0000 
2154.624	6.1139	18.3582	-8.1464	0.0000 
2154.645	6.0205	18.2483	-8.0914	0.0000 
2154.666	5.8832	18.1274	-7.9871	0.0000 
2154.690	5.7733	18.0176	-7.8003	0.0000 
2154.712	5.6909	17.9407	-7.5696	0.0000 
2154.734	5.6360	17.9187	-7.3004	0.0000 
2154.743	5.6140	17.9352	-6.9763	0.0000 
2154.814	5.5865	17.9736	-6.5314	0.0000 
2154.825	5.5920	18.0231	-6.0095	0.0000 
2154.826	5.6030	18.0945	-5.5151	0.0000 
2154.832	5.6250	18.1934	-5.0977	0.0000 
2154.848	5.6744	18.2977	-4.7571	0.0000 
2154.868	5.7788	18.4131	-4.4275	0.0000 
2154.889	5.9985	18.4680	-3.9771	0.0000 
2154.913	6.2952	18.4790	-3.3618	0.0000 
2154.988	6.5973	18.4900	-2.7246	0.0000 
2155.000	6.9214	18.6218	-2.1753	0.0000 
2155.001	7.1356	18.9240	-1.8347	0.0000 
2155.001	7.1576	19.2810	-1.6864	0.0000 
2155.007	7.0477	19.6381	-1.6260	0.0000 
2155.022	6.8939	19.8853	-1.3623	0.0000 
2155.042	6.7676	19.9512	-0.8514	0.0000 
2155.063	6.6687	19.8029	-0.2527	0.0000 
2155.085	6.4929	19.6216	0.1318	0.0000 
2155.108	6.2402	19.4788	0.2307	0.0000 
2155.131	5.9271	19.3799	0.1758	0.0000 
2155.151	5.6140	19.2755	0.0824	0.0000 
2155.222	5.3284	19.1217	0.0604	0.0000 
2155.233	5.1965	18.9789	0.0879	0.0000 
2155.234	5.1581	18.8855	0.0769	0.0000 
2155.234	5.1251	18.8525	-0.0165	0.0000 
2155.241	5.0372	18.8690	-0.1813	0.0000 
2155.261	4.9219	18.9349	-0.3900	0.0000 
2155.281	4.8230	19.0283	-0.5988	0.0000 
2155.300	4.7736	19.1272	-0.8020	0.0000 
2155.321	4.7461	19.1931	-1.0217	0.0000 
2155.398	4.6912	19.2206	-1.3074	0.0000 
2155.408	4.5868	19.1931	-1.7249	0.0000 
2155.409	4.4934	19.1272	-2.2412	0.0000 
2155.409	4.4714	19.0338	-2.7795	0.0000 
2155.432	4.5154	18.8910	-3.2465	0.0000 
2155.439	4.6637	18.7537	-3.5815	0.0000 
2155.459	4.8340	18.6053	-3.8068	0.0000 
2155.480	4.9658	18.4351	-4.0265	0.0000 
2155.499	4.9878	18.2813	-4.4055	0.0000 
2155.519	4.9384	18.1274	-4.9054	0.0000 
2155.540	5.0537	17.9626	-5.2789	0.0000 
2155.633	5.2954	17.8308	-5.5591	0.0000 
2155.639	5.4053	17.6221	-5.7953	0.0000 
2155.639	5.2515	17.4078	-6.1194	0.0000 
2155.639	5.0592	17.3584	-6.6028	0.0000 
2155.639	4.9768	17.3804	-7.0862	0.0000 
2155.665	4.9274	17.3639	-7.4432	0.0000 
2155.687	4.8834	17.3419	-7.6959	0.0000 
2155.699	4.7736	17.3639	-7.8333	0.0000 
2155.719	4.5703	17.4188	-7.9266	0.0000 
2155.737	4.3616	17.4957	-8.0145	0.0000 
2155.812	4.2462	17.5946	-8.0585	0.0000 
2155.824	4.2407	17.6331	-7.9816	0.0000 
2155.824	4.2957	17.5946	-7.8387	0.0000 
2155.824	4.3341	17.5177	-7.7014	0.0000 
2155.846	4.3286	17.4243	-7.5586	0.0000 
2155.866	4.2957	17.3419	-7.3883	0.0000 
2155.876	4.2572	17.3035	-7.1851	0.0000 
2155.897	4.2188	17.2760	-6.9159	0.0000 
2155.916	4.1858	17.2375	-6.5753	0.0000 
2155.936	4.0759	17.1771	-6.2073	0.0000 
2155.956	4.0320	17.1222	-5.8447	0.0000 
2156.050	4.0155	17.1222	-5.5481	0.0000 
2156.056	4.0210	17.2046	-5.3119	0.0000 
2156.056	4.1473	17.3035	-5.0977	0.0000 
2156.056	4.3506	17.3584	-4.8889	0.0000 
2156.056	4.6033	17.4298	-4.6252	0.0000 
2156.082	5.0043	17.4298	-4.0704	0.0000 
2156.106	5.4822	17.4133	-3.2739	0.0000 
2156.116	5.9216	17.5012	-2.5378	0.0000 
2156.135	6.1578	17.7979	-2.0325	0.0000 
2156.155	6.1633	18.2977	-1.7743	0.0000 
2156.228	6.1359	18.7482	-1.4227	0.0000 
2156.238	6.0645	19.0228	-0.8789	0.0000 
2156.238	5.9546	19.0778	-0.2637	0.0000 
2156.244	5.9161	18.9459	0.2966	0.0000 
2156.262	5.8942	18.7427	0.7031	0.0000 
2156.282	5.8392	18.5065	0.9723	0.0000 
2156.295	5.7568	18.2208	1.2085	0.0000 
2156.314	5.6415	17.9517	1.4282	0.0000 
2156.401	5.5811	17.7319	1.5930	0.0000 
2156.408	5.6085	17.5891	1.6809	0.0000 
2156.408	5.6525	17.5507	1.6425	0.0000 
2156.408	5.6525	17.6001	1.5106	0.0000 
2156.415	5.5756	17.6990	1.3129	0.0000 
2156.434	5.4327	17.8308	1.0547	0.0000 
2156.455	5.2844	17.9846	0.7471	0.0000 
2156.477	5.1416	18.1274	0.3900	0.0000 
2156.499	5.0153	18.2318	-0.0110	0.0000 
2156.521	4.8944	18.2758	-0.5219	0.0000 
2156.543	4.7900	18.2758	-1.1261	0.0000 
2156.554	4.7461	18.2318	-1.7523	0.0000 
2156.635	4.7571	18.1769	-2.3621	0.0000 
2156.647	4.8450	18.1000	-2.9224	0.0000 
2156.647	4.9548	17.9846	-3.4332	0.0000 
2156.647	5.0592	17.8198	-3.9606	0.0000 
2156.654	5.0757	17.6385	-4.6198	0.0000 
2156.672	5.1416	17.3694	-5.2075	0.0000 
2156.692	5.3558	17.0892	-5.5865	0.0000 
2156.713	5.4767	16.7816	-5.9436	0.0000 
2156.737	5.3723	16.5125	-6.3940	0.0000 
2156.813	5.1526	16.5070	-7.0477	0.0000 
2156.824	5.0208	16.6333	-7.6740	0.0000 
2156.824	4.8395	16.7981	-8.2068	0.0000 
2156.824	4.6252	16.9629	-8.6353	0.0000 
2156.831	4.3506	17.0947	-8.9923	0.0000 
2156.851	4.0210	17.2211	-9.3384	0.0000 
2156.871	3.7628	17.3474	-9.6130	0.0000 
2156.891	3.6420	17.4463	-9.7668	0.0000 
2156.913	3.6365	17.4902	-9.8438	0.0000 
2156.935	3.6914	17.4683	-9.8877	0.0000 
2156.959	3.7244	17.4078	-9.9481	0.0000 
2157.037	3.6969	17.3145	-9.9811	0.0000 
2157.048	3.6035	17.2266	-9.9426	0.0000 
2157.048	3.5046	17.1552	-9.8053	0.0000 
2157.048	3.4442	17.1057	-9.6185	0.0000 
2157.054	3.3728	17.1112	-9.4263	0.0000 
2157.071	3.3179	17.1716	-9.2010	0.0000 
2157.091	3.3124	17.2815	-8.8934	0.0000 
2157.117	3.3344	17.4078	-8.5529	0.0000 
2157.135	3.3783	17.5232	-8.2013	0.0000 
2157.157	3.4332	17.6331	-7.8717	0.0000 
2157.180	3.5486	17.7045	-7.5311	0.0000 
2157.189	3.7134	17.7484	-7.1631	0.0000 
2157.270	3.9166	17.7649	-6.7456	0.0000 
2157.276	4.1364	17.7814	-6.2567	0.0000 
2157.276	4.3835	17.8308	-5.7843	0.0000 
2157.276	4.5758	18.0066	-5.4657	0.0000 
2157.288	4.5483	18.2867	-5.3888	0.0000 
2157.308	4.4055	18.5449	-5.4437	0.0000 
2157.328	4.2517	18.7427	-5.4657	0.0000 
2157.348	4.1418	18.8196	-5.1910	0.0000 
2157.369	4.1034	18.7482	-4.5813	0.0000 
2157.447	4.0759	18.6658	-4.0320	0.0000 
2157.458	3.9771	18.6053	-3.7354	0.0000 
2157.458	3.8123	18.5779	-3.6420	0.0000 
2157.458	3.5596	18.5614	-3.6914	0.0000 
2157.467	3.3508	18.5449	-3.7189	0.0000 
2157.494	3.2355	18.5010	-3.6694	0.0000 
2157.516	3.2025	18.4351	-3.6200	0.0000 
2157.529	3.2190	18.3911	-3.6310	0.0000 
2157.551	3.2300	18.3691	-3.6694	0.0000 
2157.572	3.2300	18.3527	-3.7024	0.0000 
2157.596	3.2629	18.3527	-3.7354	0.0000 
2157.688	3.2684	18.3801	-3.8013	0.0000 
2157.694	3.2465	18.4241	-3.8892	0.0000 
2157.694	3.2080	18.4790	-4.0430	0.0000 
2157.694	3.1256	18.5339	-4.2902	0.0000 
2157.694	3.0322	18.5724	-4.6362	0.0000 
2157.705	3.0432	18.5999	-4.9768	0.0000 
2157.725	3.1586	18.5999	-5.2515	0.0000 
2157.745	3.3234	18.5889	-5.4602	0.0000 
2157.766	3.5046	18.5724	-5.6525	0.0000 
2157.789	3.5925	18.4625	-5.9106	0.0000 
2157.865	3.6090	18.2483	-6.2567	0.0000 
2157.876	3.5706	17.9681	-6.6907	0.0000 
2157.877	3.7079	17.6166	-6.8610	0.0000 
2157.877	4.0869	17.3090	-6.6687	0.0000 
2157.885	4.2957	17.0013	-6.4380	0.0000 
2157.906	4.1144	16.7816	-6.3446	0.0000 
2157.925	3.8452	16.7871	-6.5039	0.0000 
2157.946	3.7793	16.9629	-6.7786	0.0000 
2157.968	3.7683	17.0892	-7.0313	0.0000 
2158.044	3.7573	17.1332	-7.2400	0.0000 
2158.054	3.6969	17.1936	-7.4377	0.0000 
2158.054	3.5376	17.2430	-7.5751	0.0000 
2158.054	3.4003	17.3035	-7.6355	0.0000 
2158.064	3.3948	17.3474	-7.6025	0.0000 
2158.084	3.4882	17.3804	-7.4982	0.0000 
2158.103	3.6530	17.3969	-7.3828	0.0000 
2158.124	3.7903	17.3914	-7.2894	0.0000 
2158.143	3.8232	17.3694	-7.2070	0.0000 
2158.165	3.7683	17.3529	-7.1027	0.0000 
2158.188	3.6475	17.3804	-6.9873	0.0000 
2158.279	3.5596	17.4628	-6.8335	0.0000 
2158.285	3.5486	17.5726	-6.6357	0.0000 
2158.285	3.6310	17.7045	-6.3831	0.0000 
2158.285	3.7793	17.8253	-6.0864	0.0000 
2158.285	3.9331	17.9187	-5.7623	0.0000 
2158.313	4.0924	17.9956	-5.4822	0.0000 
2158.323	4.2572	18.0670	-5.2899	0.0000 
2158.342	4.4000	18.1824	-5.2295	0.0000 
2158.362	4.6088	18.3197	-5.1855	0.0000 
2158.382	4.9713	18.3307	-4.8944	0.0000 
2158.455	5.3613	18.2867	-4.4714	0.0000 
2158.466	5.8008	18.3142	-4.0320	0.0000 
2158.466	6.0754	18.5559	-3.8177	0.0000 
2158.466	6.1688	18.9185	-3.8068	0.0000 
2158.488	6.2018	19.2426	-3.7408	0.0000 
2158.509	6.2073	19.4183	-3.4058	0.0000 
2158.521	6.2402	19.3414	-2.7686	0.0000 
2158.541	6.3062	19.1162	-2.0654	0.0000 
2158.561	6.3062	18.8855	-1.5326	0.0000 
2158.580	6.1578	18.7207	-1.2195	0.0000 
2158.600	5.9491	18.5944	-1.0272	0.0000 
2158.687	5.6854	18.4460	-0.8844	0.0000 
2158.694	5.4437	18.2813	-0.7361	0.0000 
2158.694	5.2844	18.1494	-0.5988	0.0000 
2158.694	5.1910	18.0945	-0.5109	0.0000 
2158.701	5.0757	18.1000	-0.4779	0.0000 
2158.721	4.9219	18.1659	-0.5383	0.0000 
2158.743	4.7296	18.2703	-0.6757	0.0000 
2158.765	4.5374	18.4241	-0.8789	0.0000 
2158.786	4.4165	18.5834	-1.0876	0.0000 
2158.862	4.3066	18.6493	-1.3348	0.0000 
2158.874	4.2023	18.6438	-1.6699	0.0000 
2158.874	4.1199	18.5999	-2.1368	0.0000 
2158.874	4.0649	18.5229	-2.6532	0.0000 
2158.881	4.0540	18.4131	-3.0927	0.0000 
2158.898	4.0759	18.2703	-3.4003	0.0000 
2158.918	4.0649	18.0670	-3.6584	0.0000 
2158.939	4.0155	17.8638	-4.0814	0.0000 
2158.962	3.9825	17.6331	-4.5648	0.0000 
2158.985	4.1913	17.3969	-4.9054	0.0000 
2159.007	4.4055	17.1826	-5.2515	0.0000 
2159.030	4.3341	16.9574	-5.6799	0.0000 
2159.104	4.1528	16.8475	-6.1633	0.0000 
2159.114	4.0485	16.8695	-6.6742	0.0000 
2159.115	4.0320	16.9135	-7.1082	0.0000 
2159.115	3.9990	17.0233	-7.4487	0.0000 
2159.121	3.9551	17.1606	-7.6685	0.0000 
2159.138	3.8617	17.2705	-7.7838	0.0000 
2159.157	3.6475	17.3969	-7.8882	0.0000 
2159.180	3.4442	17.5452	-7.9926	0.0000 
2159.201	3.3563	17.6550	-8.0640	0.0000 
2159.280	3.3344	17.7100	-8.1354	0.0000 
2159.290	3.3398	17.6990	-8.2617	0.0000 
2159.291	3.3179	17.6605	-8.3936	0.0000 
2159.291	3.2684	17.5946	-8.4595	0.0000 
2159.297	3.2190	17.5342	-8.4265	0.0000 
2159.316	3.2135	17.4902	-8.3221	0.0000 
2159.336	3.2520	17.4847	-8.2013	0.0000 
2159.356	3.3398	17.5287	-8.0695	0.0000 
2159.378	3.4113	17.6001	-7.9431	0.0000 
2159.452	3.4442	17.6990	-7.8113	0.0000 
2159.462	3.4607	17.8198	-7.6740	0.0000 
2159.463	3.4991	17.9626	-7.5201	0.0000 
2159.463	3.5431	18.1110	-7.4103	0.0000 
2159.484	3.6090	18.2758	-7.3279	0.0000 
2159.496	3.7354	18.4790	-7.2400	0.0000 
2159.516	3.9221	18.6328	-6.9928	0.0000 
2159.536	4.1858	18.7097	-6.5369	0.0000 
2159.555	4.4659	18.7372	-5.9601	0.0000 
2159.575	4.7736	18.7921	-5.4382	0.0000 
2159.597	5.1086	18.9844	-5.1141	0.0000 
2159.687	5.3174	19.2920	-5.1031	0.0000 
2159.694	5.3394	19.6326	-5.2734	0.0000 
2159.695	5.2570	19.8798	-5.3503	0.0000 
2159.695	5.2570	19.9622	-5.0702	0.0000 
2159.695	5.2679	19.8303	-4.4769	0.0000 
2159.719	5.2679	19.6216	-3.9221	0.0000 
2159.742	5.1910	19.4458	-3.6145	0.0000 
2159.763	5.0592	19.3304	-3.4882	0.0000 
2159.774	4.8889	19.2096	-3.4442	0.0000 
2159.793	4.7406	19.0778	-3.3783	0.0000 
2159.863	4.7131	18.9240	-3.2520	0.0000 
2159.873	4.7736	18.8031	-3.1366	0.0000 
2159.873	4.8779	18.7317	-3.1091	0.0000 
2159.879	4.9603	18.6932	-3.1421	0.0000 
2159.895	5.0043	18.6713	-3.2080	0.0000 
2159.916	5.0317	18.6768	-3.2684	0.0000 
2159.940	5.0757	18.6877	-3.2959	0.0000 
2159.963	5.1086	18.6823	-3.3179	0.0000 
2159.972	5.1031	18.6768	-3.4058	0.0000 
2159.992	5.0537	18.6603	-3.5760	0.0000 
2160.012	4.9933	18.6273	-3.8123	0.0000 
2160.095	4.9658	18.5944	-4.0869	0.0000 
2160.101	5.0262	18.5504	-4.3451	0.0000 
2160.101	5.1526	18.4790	-4.5868	0.0000 
2160.101	5.3339	18.3911	-4.8175	0.0000 
2160.111	5.5261	18.2813	-5.0372	0.0000 
2160.131	5.6580	18.1329	-5.3284	0.0000 
2160.151	5.7513	17.9297	-5.6909	0.0000 
2160.173	5.8502	17.6935	-6.1633	0.0000 
2160.196	5.9656	17.4188	-6.6193	0.0000 
2160.271	6.2402	17.1552	-6.8884	0.0000 
2160.281	6.5259	16.9409	-7.0807	0.0000 
2160.282	6.5753	16.7047	-7.3169	0.0000 
2160.282	6.4764	16.6003	-7.7014	0.0000 
2160.290	6.3995	16.7377	-8.2452	0.0000 
2160.310	6.3501	16.9299	-8.7067	0.0000 
2160.330	6.2512	17.1332	-9.0802	0.0000 
2160.350	6.1249	17.3584	-9.3988	0.0000 
2160.373	5.9161	17.6056	-9.7174	0.0000 
2160.397	5.6305	17.8583	-10.0305	0.0000 
2160.417	5.4492	18.0780	-10.2722	0.0000 
2160.439	5.3723	18.2208	-10.4425	0.0000 
2160.511	5.3778	18.3142	-10.5579	0.0000 
2160.522	5.4547	18.3527	-10.6567	0.0000 
2160.522	5.5042	18.3307	-10.7172	0.0000 
2160.522	5.4822	18.2977	-10.7391	0.0000 
2160.530	5.4218	18.2758	-10.7281	0.0000 
2160.548	5.3558	18.3087	-10.7227	0.0000 
2160.568	5.3174	18.3856	-10.6897	0.0000 
2160.589	5.2734	18.4845	-10.6183	0.0000 
2160.608	5.2405	18.6163	-10.4919	0.0000 
2160.686	5.2679	18.7592	-10.2612	0.0000 
2160.697	5.3119	18.9075	-9.9646	0.0000 
2160.697	5.3943	19.0668	-9.7119	0.0000 
2160.697	5.5206	19.2151	-9.5251	0.0000 
2160.717	5.6470	19.3250	-9.4098	0.0000 
2160.729	5.8392	19.3744	-9.2560	0.0000 
2160.748	6.0590	19.3524	-8.9594	0.0000 
2160.768	6.3336	19.2920	-8.5968	0.0000 
2160.788	6.5424	19.3414	-8.3606	0.0000 
2160.807	6.6028	19.4843	-8.3716	0.0000 
2160.828	6.5204	19.6545	-8.5748	0.0000 
2160.915	6.3940	19.7479	-8.6792	0.0000 
2160.921	6.2622	19.6655	-8.5309	0.0000 
2160.921	6.1523	19.4348	-8.2397	0.0000 
2160.921	6.0645	19.1602	-7.9596	0.0000 
2160.927	5.9436	18.9020	-7.8168	0.0000 
2160.948	5.7458	18.6823	-7.8278	0.0000 
2160.970	5.5096	18.5010	-7.9376	0.0000 
2160.991	5.2954	18.3362	-8.0914	0.0000 
2161.014	5.1801	18.1769	-8.2782	0.0000 
2161.088	5.1141	18.0670	-8.5254	0.0000 
2161.098	5.0647	18.0341	-8.8440	0.0000 
2161.099	5.0537	18.0450	-9.1187	0.0000 
2161.099	5.0592	18.0670	-9.3329	0.0000 
2161.106	5.0427	18.1219	-9.5801	0.0000 
2161.125	5.0153	18.2153	-9.8822	0.0000 
2161.145	4.9988	18.3252	-10.2228	0.0000 
2161.166	4.9548	18.3966	-10.5908	0.0000 
2161.188	4.8560	18.4186	-11.0248	0.0000 
2161.212	4.7626	18.4021	-11.5137	0.0000 
2161.232	4.7406	18.3691	-12.0190	0.0000 
2161.327	4.7736	18.3197	-12.5024	0.0000 
2161.334	4.8230	18.2318	-12.9529	0.0000 
2161.334	4.9219	18.1384	-13.3704	0.0000 
2161.334	5.0043	18.0121	-13.7659	0.0000 
2161.334	5.0153	17.8528	-14.2163	0.0000 
2161.344	4.9878	17.6660	-14.7491	0.0000 
2161.364	5.0153	17.4463	-15.2271	0.0000 
2161.383	5.2405	17.2046	-15.4742	0.0000 
2161.404	5.4822	16.9958	-15.6665	0.0000 
2161.425	5.4602	16.8036	-15.9576	0.0000 
2161.503	5.1251	16.7651	-16.5399	0.0000 
2161.528	4.8724	16.8860	-17.3254	0.0000 
2161.528	4.7186	17.0013	-17.9736	0.0000 
2161.528	4.6088	17.0618	-18.4021	0.0000 
2161.541	4.5703	17.1112	-18.6273	0.0000 
2161.548	4.4550	17.1771	-18.7592	0.0000 
2161.564	4.1803	17.2870	-18.9075	0.0000 
2161.584	3.9111	17.4408	-19.0942	0.0000 
2161.606	3.7134	17.5891	-19.2700	0.0000 
2161.685	3.6035	17.7045	-19.3854	0.0000 
2161.697	3.5651	17.7594	-19.4238	0.0000 
2161.697	3.5101	17.7704	-19.4293	0.0000 
2161.697	3.4222	17.7539	-19.3854	0.0000 
2161.703	3.3344	17.7429	-19.2920	0.0000 
2161.721	3.3014	17.7374	-19.0997	0.0000 
2161.741	3.3069	17.7374	-18.8251	0.0000 
2161.762	3.3179	17.7704	-18.5229	0.0000 
2161.783	3.3179	17.8418	-18.1934	0.0000 
2161.806	3.3289	17.9297	-17.8143	0.0000 
2161.830	3.3673	18.0286	-17.3474	0.0000 
2161.850	3.4442	18.1384	-16.8365	0.0000 
2161.921	3.5651	18.2813	-16.3422	0.0000 
2161.932	3.7244	18.4351	-15.8862	0.0000 
2161.933	3.9111	18.5834	-15.4248	0.0000 
2161.933	4.2078	18.6603	-14.8206	0.0000 
2161.940	4.6198	18.6768	-14.0021	0.0000 
2161.961	5.1031	18.6713	-13.0792	0.0000 
2161.980	5.6415	18.7592	-12.1564	0.0000 
2161.999	5.9930	19.0283	-11.4423	0.0000 
2162.020	6.1249	19.3579	-10.9204	0.0000 
2162.099	6.0864	19.6545	-10.4370	0.0000 
2162.109	6.0535	19.8083	-9.7668	0.0000 
2162.110	6.0480	19.7205	-8.8000	0.0000 
2162.110	6.0974	19.5117	-7.7509	0.0000 
2162.120	6.1469	19.2920	-6.8445	0.0000 
2162.141	6.1084	19.1107	-6.1194	0.0000 
2162.161	6.0535	18.9789	-5.5481	0.0000 
2162.179	5.9821	18.8635	-5.0647	0.0000 
2162.199	5.9766	18.7372	-4.6088	0.0000 
2162.219	6.0535	18.6108	-4.1418	0.0000 
2162.240	6.1688	18.4900	-3.6584	0.0000 
2162.331	6.2622	18.4460	-3.2245	0.0000 
2162.337	6.3281	18.4680	-2.8070	0.0000 
2162.337	6.3501	18.5339	-2.4225	0.0000 
2162.337	6.3281	18.6383	-2.0929	0.0000 
2162.343	6.2787	18.7537	-1.8292	0.0000 
2162.364	6.2183	18.8635	-1.6425	0.0000 
2162.386	6.1359	18.9130	-1.5051	0.0000 
2162.408	6.0590	18.8800	-1.4063	0.0000 
2162.418	6.0205	18.8031	-1.3403	0.0000 
2162.505	6.0754	18.6987	-1.2634	0.0000 
2162.517	6.1908	18.5724	-1.1700	0.0000 
2162.517	6.3391	18.4570	-1.0876	0.0000 
2162.517	6.4874	18.3472	-1.0437	0.0000 
2162.532	6.5588	18.2098	-1.0931	0.0000 
2162.540	6.5369	18.0725	-1.3239	0.0000 
2162.569	6.5259	17.9352	-1.6479	0.0000 
2162.579	6.6138	17.7594	-1.9061	0.0000 
2162.597	6.8665	17.6495	-2.0599	0.0000 
2162.617	7.0972	17.5562	-2.1588	0.0000 
2162.636	7.1136	17.4463	-2.3401	0.0000 
2162.656	6.9818	17.4463	-2.6697	0.0000 
2162.733	6.9324	17.5726	-3.0267	0.0000 
2162.744	6.9434	17.7429	-3.3453	0.0000 
2162.744	6.9379	17.8967	-3.5925	0.0000 
2162.744	6.9159	18.0780	-3.8013	0.0000 
2162.765	6.7676	18.2922	-4.0430	0.0000 
2162.776	6.5588	18.5449	-4.3121	0.0000 
2162.795	6.4270	18.7701	-4.5099	0.0000 
2162.815	6.3995	18.9240	-4.6198	0.0000 
2162.835	6.4655	19.0393	-4.6857	0.0000 
2162.911	6.5643	19.1107	-4.7406	0.0000 
2162.922	6.6028	19.1272	-4.7736	0.0000 
2162.923	6.5918	19.1162	-4.7845	0.0000 
2162.923	6.5588	19.1052	-4.7461	0.0000 
2162.943	6.5369	19.0997	-4.6582	0.0000 
2162.955	6.5369	19.0833	-4.5209	0.0000 
2162.974	6.5369	19.0942	-4.3616	0.0000 
2162.995	6.5314	19.1272	-4.1583	0.0000 
2163.015	6.5588	19.1876	-3.9056	0.0000 
2163.035	6.5753	19.2535	-3.6365	0.0000 
2163.057	6.6248	19.3250	-3.4003	0.0000 
2163.138	6.7181	19.3744	-3.2080	0.0000 
2163.149	6.8445	19.4073	-3.0212	0.0000 
2163.149	7.0313	19.3799	-2.7576	0.0000 
2163.150	7.2839	19.3140	-2.3456	0.0000 
2163.156	7.5146	19.2316	-1.9061	0.0000 
2163.173	7.7728	19.2645	-1.5271	0.0000 
2163.193	7.9047	19.4952	-1.3129	0.0000 
2163.214	7.9102	19.7809	-1.2195	0.0000 
2163.239	7.7618	20.0226	-1.1261	0.0000 
2163.314	7.5696	20.1324	-0.8185	0.0000 
2163.325	7.4762	20.0555	-0.2802	0.0000 
2163.326	7.4707	19.8853	0.2527	0.0000 
2163.326	7.4213	19.7095	0.5768	0.0000 
2163.332	7.2125	19.6051	0.5988	0.0000 
2163.352	6.9708	19.5282	0.4999	0.0000 
2163.371	6.7346	19.4128	0.4065	0.0000 
2163.391	6.5863	19.2645	0.3461	0.0000 
2163.413	6.5588	19.1162	0.2747	0.0000 
2163.436	6.6028	19.0009	0.1703	0.0000 
2163.458	6.6522	18.9130	0.0385	0.0000 
2163.550	6.6687	18.8910	-0.1373	0.0000 
2163.557	6.6412	18.9075	-0.3790	0.0000 
2163.557	6.5918	18.9679	-0.6482	0.0000 
2163.557	6.5479	19.0338	-0.9229	0.0000 
2163.558	6.4929	19.0668	-1.1975	0.0000 
2163.572	6.4270	19.0558	-1.4941	0.0000 
2163.591	6.3336	19.0009	-1.8292	0.0000 
2163.611	6.2457	18.9240	-2.2028	0.0000 
2163.631	6.2292	18.8416	-2.5763	0.0000 
2163.651	6.2787	18.7482	-2.9169	0.0000 
2163.724	6.3611	18.6438	-3.2080	0.0000 
2163.736	6.4655	18.5669	-3.4607	0.0000 
2163.736	6.5533	18.5339	-3.6969	0.0000 
2163.736	6.5753	18.5065	-3.9606	0.0000 
2163.757	6.5643	18.4351	-4.2627	0.0000 
2163.780	6.5424	18.3252	-4.5813	0.0000 
2163.790	6.5149	18.1769	-4.8834	0.0000 
2163.809	6.6742	18.0066	-5.0098	0.0000 
2163.830	6.8884	17.8802	-4.9878	0.0000 
2163.849	7.0038	17.8143	-4.9438	0.0000 
2163.870	6.9049	17.8033	-5.0262	0.0000 
2163.963	6.6797	17.8638	-5.2570	0.0000 
2163.970	6.4929	17.9846	-5.5975	0.0000 
2163.970	6.3116	18.0725	-5.8942	0.0000 
2163.970	6.1469	18.1110	-6.0480	0.0000 
2163.970	6.0040	18.1604	-6.1029	0.0000 
2163.995	5.7294	18.2483	-6.0699	0.0000 
2164.016	5.4272	18.3801	-6.0370	0.0000 
2164.029	5.1801	18.5284	-6.0370	0.0000 
2164.048	5.0098	18.6658	-6.0590	0.0000 
2164.137	4.9054	18.7646	-6.0974	0.0000 
2164.144	4.8010	18.8361	-6.1633	0.0000 
2164.144	4.7131	18.8690	-6.1853	0.0000 
2164.144	4.6252	18.8580	-6.1194	0.0000 
2164.150	4.5923	18.8416	-5.9875	0.0000 
2164.171	4.5813	18.8251	-5.8063	0.0000 
2164.192	4.5923	18.8361	-5.6195	0.0000 
2164.214	4.5923	18.8800	-5.4218	0.0000 
2164.238	4.5758	18.9294	-5.1965	0.0000 
2164.247	4.5758	18.9899	-4.9109	0.0000 
2164.266	4.5703	19.0448	-4.5923	0.0000 
2164.286	4.5703	19.1107	-4.2902	0.0000 
2164.375	4.6198	19.1876	-4.0210	0.0000 
2164.381	4.6857	19.2590	-3.7738	0.0000 
2164.381	4.8010	19.3140	-3.5046	0.0000 
2164.381	4.9603	19.3689	-3.1641	0.0000 
2164.387	5.1855	19.4183	-2.7301	0.0000 
2164.406	5.4108	19.4788	-2.2028	0.0000 
2164.430	5.5975	19.5062	-1.6974	0.0000 
2164.450	5.8502	19.5886	-1.2634	0.0000 
2164.472	6.0590	19.7699	-0.9613	0.0000 
2164.552	6.1304	19.9786	-0.8020	0.0000 
2164.562	6.0974	20.1270	-0.6866	0.0000 
2164.563	5.9656	20.1434	-0.4340	0.0000 
2164.563	5.8887	20.0391	0.0659	0.0000 
2164.569	5.8832	19.8248	0.7086	0.0000 
2164.585	5.8667	19.5831	1.2030	0.0000 
2164.607	5.7898	19.3909	1.4612	0.0000 
2164.628	5.6085	19.2590	1.5106	0.0000 
2164.649	5.3668	19.1492	1.4886	0.0000 
2164.672	5.1416	19.0503	1.4777	0.0000 
2164.695	5.0262	18.9349	1.4996	0.0000 
2164.704	5.0153	18.8141	1.5546	0.0000 
2164.785	5.0592	18.6932	1.6040	0.0000 
2164.791	5.1086	18.5889	1.6095	0.0000 
2164.791	5.1251	18.5010	1.5820	0.0000 
2164.791	5.1526	18.4625	1.5381	0.0000 
2164.803	5.2020	18.4515	1.4832	0.0000 
2164.829	5.2570	18.4460	1.4117	0.0000 
2164.843	5.2899	18.4351	1.2689	0.0000 
2164.863	5.2679	18.4241	1.0217	0.0000 
2164.883	5.2075	18.3746	0.6921	0.0000 
2164.961	5.1636	18.2867	0.3406	0.0000 
2164.971	5.2020	18.1494	0.0385	0.0000 
2164.971	5.3394	18.0011	-0.1813	0.0000 
2164.971	5.5756	17.8638	-0.3296	0.0000 
2164.991	5.8502	17.7209	-0.4669	0.0000 
2165.003	6.0590	17.5562	-0.6592	0.0000 
2165.022	6.1853	17.3694	-0.9283	0.0000 
2165.043	6.2842	17.1606	-1.2415	0.0000 
2165.062	6.3171	16.9354	-1.6095	0.0000 
2165.082	6.4435	16.5948	-1.8677	0.0000 
2165.104	6.7896	16.2268	-1.9171	0.0000 
2165.191	6.9818	15.9521	-2.0105	0.0000 
2165.197	6.9763	15.6830	-2.1973	0.0000 
2165.197	6.8390	15.4907	-2.5049	0.0000 
2165.197	6.7236	15.4303	-2.9224	0.0000 
2165.203	6.6302	15.3864	-3.3783	0.0000 
2165.223	6.5973	15.2985	-3.7958	0.0000 
2165.246	6.5424	15.2325	-4.1583	0.0000 
2165.267	6.3116	15.2106	-4.4110	0.0000 
2165.291	5.9821	15.2106	-4.5483	0.0000 
2165.365	5.7513	15.2271	-4.5483	0.0000 
2165.375	5.5865	15.2765	-4.5319	0.0000 
2165.376	5.4272	15.3809	-4.5538	0.0000 
2165.376	5.2075	15.5402	-4.6198	0.0000 
2165.382	4.9274	15.7050	-4.6692	0.0000 
2165.400	4.6912	15.8203	-4.6472	0.0000 
2165.421	4.5374	15.9137	-4.5428	0.0000 
2165.441	4.4495	15.9961	-4.3451	0.0000 
2165.465	4.4714	16.0895	-3.9771	0.0000 
2165.541	4.5813	16.1938	-3.4497	0.0000 
2165.552	4.7571	16.3257	-2.8125	0.0000 
2165.552	4.9658	16.4740	-2.1259	0.0000 
2165.552	5.1910	16.5948	-1.4063	0.0000 
2165.559	5.4163	16.7102	-0.7361	0.0000 
2165.579	5.6030	16.8475	-0.1868	0.0000 
2165.599	5.7733	16.9849	0.2802	0.0000 
2165.619	5.9766	17.0892	0.7526	0.0000 
2165.639	6.1908	17.2046	1.2360	0.0000 
2165.662	6.4600	17.3145	1.7303	0.0000 
2165.682	6.7676	17.5012	2.2028	0.0000 
2165.776	7.0093	17.7429	2.6202	0.0000 
2165.783	7.2400	17.9846	3.0212	0.0000 
2165.783	7.3993	18.1274	3.5101	0.0000 
2165.783	7.5531	18.1549	4.1034	0.0000 
2165.783	7.7124	18.1659	4.7021	0.0000 
2165.798	7.8992	18.2373	5.1965	0.0000 
2165.817	7.9651	18.3801	5.5206	0.0000 
2165.837	7.9156	18.5449	5.7513	0.0000 
2165.857	7.7563	18.7152	5.9106	0.0000 
2165.877	7.5751	18.8855	6.0699	0.0000 
2165.951	7.4323	19.0228	6.2347	0.0000 
2165.962	7.2784	19.1052	6.3721	0.0000 
2165.963	7.1136	19.1492	6.4545	0.0000 
2165.963	6.9818	19.1766	6.5094	0.0000 
2165.984	6.9434	19.2261	6.5424	0.0000 
2166.006	6.9598	19.2865	6.5369	0.0000 
2166.017	6.9708	19.3689	6.4600	0.0000 
2166.036	6.9598	19.5007	6.3171	0.0000 
2166.055	6.9159	19.6436	6.1743	0.0000 
2166.076	6.9324	19.7589	6.0974	0.0000 
2166.095	6.9763	19.8413	6.1194	0.0000 
2166.192	6.9708	19.8523	6.1798	0.0000 
2166.198	6.9214	19.8248	6.2183	0.0000 
2166.198	6.8610	19.7974	6.2183	0.0000 
2166.198	6.8774	19.7809	6.2018	0.0000 
2166.198	6.9434	19.7699	6.1523	0.0000 
2166.225	7.0203	19.7809	6.0645	0.0000 
2166.235	7.0752	19.8413	5.9546	0.0000 
2166.254	7.1246	19.9182	5.8942	0.0000 
2166.274	7.1851	20.0226	5.8777	0.0000 
2166.294	7.2400	20.1324	5.8557	0.0000 
2166.368	7.2400	20.2423	5.7788	0.0000 
2166.380	7.2015	20.3467	5.6744	0.0000 
2166.380	7.1191	20.4291	5.5426	0.0000 
2166.386	7.0367	20.4840	5.4382	0.0000 
2166.401	6.9598	20.5005	5.3723	0.0000 
2166.423	6.8610	20.5005	5.3339	0.0000 
2166.435	6.7731	20.5170	5.3174	0.0000 
2166.454	6.6852	20.5280	5.3174	0.0000 
2166.474	6.6028	20.5389	5.3119	0.0000 
2166.495	6.5039	20.5389	5.2954	0.0000 
2166.514	6.3995	20.5389	5.2734	0.0000 
2166.606	6.3171	20.5334	5.2570	0.0000 
2166.612	6.2402	20.5005	5.2625	0.0000 
2166.612	6.1688	20.4510	5.2844	0.0000 
2166.612	6.0919	20.3851	5.3174	0.0000 
2166.618	6.0205	20.3247	5.3503	0.0000 
2166.639	5.9711	20.2643	5.3998	0.0000 
2166.659	5.9216	20.1984	5.4602	0.0000 
2166.682	5.8557	20.1379	5.4932	0.0000 
2166.694	5.7898	20.0720	5.5316	0.0000 
2166.780	5.7349	20.0061	5.5756	0.0000 
2166.793	5.6964	19.9457	5.6195	0.0000 
2166.794	5.6909	19.8853	5.6689	0.0000 
2166.794	5.6799	19.8248	5.7349	0.0000 
2166.800	5.6580	19.7589	5.7898	0.0000 
2166.812	5.6415	19.7095	5.8502	0.0000 
2166.834	5.6415	19.6600	5.9326	0.0000 
2166.858	5.6580	19.6216	6.0040	0.0000 
2166.879	5.6689	19.5831	6.0535	0.0000 
2166.902	5.6635	19.5557	6.0974	0.0000 
2166.911	5.6799	19.5392	6.1523	0.0000 
2166.931	5.7184	19.5227	6.2292	0.0000 
2167.016	5.7678	19.5007	6.2842	0.0000 
2167.022	5.7898	19.5062	6.3007	0.0000 
2167.022	5.7898	19.5227	6.2952	0.0000 
2167.022	5.8063	19.5392	6.3062	0.0000 
2167.030	5.8228	19.5502	6.3446	0.0000 
2167.050	5.8612	19.5502	6.4105	0.0000 
2167.070	5.9052	19.5392	6.4709	0.0000 
2167.095	5.9326	19.5392	6.5149	0.0000 
2167.114	5.9491	19.5502	6.5479	0.0000 
2167.193	5.9656	19.5612	6.5753	0.0000 
2167.203	5.9766	19.5776	6.6083	0.0000 
2167.204	5.9875	19.5996	6.6357	0.0000 
2167.204	6.0040	19.6106	6.6632	0.0000 
2167.210	6.0095	19.6216	6.6962	0.0000 
2167.229	6.0095	19.6216	6.7291	0.0000 
2167.249	6.0205	19.6216	6.7676	0.0000 
2167.269	6.0370	19.6271	6.8280	0.0000 
2167.292	6.0535	19.6326	6.8774	0.0000 
2167.370	6.0590	19.6381	6.9214	0.0000 
2167.387	6.0754	19.6490	6.9818	0.0000 
2167.387	6.0919	19.6381	7.0587	0.0000 
2167.387	6.1139	19.6161	7.1576	0.0000 
2167.394	6.1578	19.6161	7.2455	0.0000 
2167.408	6.2073	19.6106	7.3334	0.0000 
2167.427	6.2402	19.5886	7.4323	0.0000 
2167.449	6.2567	19.5721	7.5146	0.0000 
2167.472	6.2512	19.5502	7.5806	0.0000 
2167.489	6.2292	19.5447	7.6520	0.0000 
2167.507	6.2457	19.5392	7.7399	0.0000 
2167.528	6.2842	19.5227	7.8333	0.0000 
2167.613	6.3007	19.5172	7.9047	0.0000 
2167.619	6.3062	19.5117	7.9651	0.0000 
2167.619	6.3226	19.5227	8.0365	0.0000 
2167.619	6.3721	19.5392	8.1244	0.0000 
2167.626	6.4160	19.5557	8.2068	0.0000 
2167.646	6.4490	19.5776	8.2617	0.0000 
2167.668	6.4764	19.5886	8.3167	0.0000 
2167.689	6.4984	19.5996	8.3716	0.0000 
2167.711	6.5424	19.6106	8.4485	0.0000 
2167.786	6.6028	19.6216	8.5364	0.0000 
2167.797	6.6522	19.6326	8.6133	0.0000 
2167.797	6.6907	19.6436	8.6737	0.0000 
2167.797	6.7236	19.6545	8.7286	0.0000 
2167.806	6.7621	19.6545	8.7836	0.0000 
2167.826	6.8060	19.6490	8.8385	0.0000 
2167.846	6.8445	19.6381	8.8989	0.0000 
2167.866	6.8774	19.6216	8.9539	0.0000 
2167.886	6.9269	19.6051	9.0308	0.0000 
2167.906	6.9818	19.5831	9.0967	0.0000 
2167.929	7.0148	19.5557	9.1571	0.0000 
2168.019	7.0477	19.5282	9.2230	0.0000 
2168.026	7.0807	19.5007	9.2889	0.0000 
2168.026	7.1246	19.4843	9.3604	0.0000 
2168.026	7.1576	19.4513	9.4263	0.0000 
2168.027	7.1741	19.4183	9.4922	0.0000 
2168.051	7.1960	19.3964	9.5306	0.0000 
2168.072	7.2180	19.3854	9.5581	0.0000 
2168.085	7.2290	19.3689	9.5966	0.0000 
2168.104	7.2565	19.3469	9.6515	0.0000 
2168.194	7.3004	19.3304	9.7229	0.0000 
2168.201	7.3389	19.3195	9.7778	0.0000 
2168.201	7.3553	19.3140	9.8218	0.0000 
2168.201	7.3773	19.3195	9.8657	0.0000 
2168.207	7.4103	19.3250	9.9207	0.0000 
2168.227	7.4597	19.3304	9.9921	0.0000 
2168.247	7.5037	19.3304	10.0470	0.0000 
2168.271	7.5201	19.3304	10.0745	0.0000 
2168.292	7.5421	19.3414	10.1019	0.0000 
2168.303	7.5751	19.3469	10.1514	0.0000 
2168.323	7.6080	19.3469	10.1953	0.0000 
2168.344	7.6300	19.3469	10.2283	0.0000 
2168.429	7.6465	19.3579	10.2557	0.0000 
2168.436	7.6630	19.3634	10.2997	0.0000 
2168.436	7.6794	19.3579	10.3491	0.0000 
2168.436	7.6904	19.3524	10.3876	0.0000 
2168.443	7.7014	19.3524	10.4150	0.0000 
2168.462	7.6959	19.3524	10.4370	0.0000 
2168.483	7.6904	19.3414	10.4645	0.0000 
2168.506	7.6740	19.3195	10.4919	0.0000 
2168.530	7.6575	19.2975	10.5194	0.0000 
2168.606	7.6575	19.2810	10.5249	0.0000 
2168.612	7.6740	19.2810	10.5139	0.0000 
2168.612	7.6740	19.2645	10.5139	0.0000 
2168.612	7.6465	19.2316	10.5194	0.0000 
2168.628	7.5970	19.2096	10.5029	0.0000 
2168.642	7.5641	19.1931	10.4755	0.0000 
2168.663	7.5366	19.1766	10.4700	0.0000 
2168.682	7.5037	19.1656	10.4700	0.0000 
2168.705	7.4707	19.1602	10.4590	0.0000 
2168.727	7.4487	19.1492	10.4480	0.0000 
2168.750	7.4323	19.1492	10.4480	0.0000 
2168.760	7.4432	19.1547	10.4535	0.0000 
2168.841	7.4652	19.1437	10.4645	0.0000 
2168.853	7.4762	19.1382	10.4645	0.0000 
2168.853	7.5037	19.1437	10.4480	0.0000 
2168.853	7.5366	19.1437	10.4425	0.0000 
2168.860	7.5531	19.1327	10.4370	0.0000 
2168.879	7.5531	19.1272	10.4315	0.0000 
2168.899	7.5476	19.1327	10.4260	0.0000 
2168.919	7.5586	19.1437	10.4150	0.0000 
2168.940	7.5531	19.1437	10.3931	0.0000 
2169.016	7.5531	19.1547	10.3656	0.0000 
2169.029	7.5641	19.1602	10.3491	0.0000 
2169.030	7.5806	19.1602	10.3326	0.0000 
2169.030	7.5806	19.1602	10.3107	0.0000 
2169.048	7.5696	19.1656	10.2832	0.0000 
2169.058	7.5531	19.1766	10.2557	0.0000 
2169.078	7.5476	19.1876	10.2338	0.0000 
2169.098	7.5366	19.1876	10.2228	0.0000 
2169.118	7.5146	19.1931	10.2063	0.0000 
2169.139	7.5092	19.2041	10.1843	0.0000 
2169.160	7.5037	19.2096	10.1788	0.0000 
2169.252	7.4982	19.2041	10.2008	0.0000 
2169.258	7.4817	19.2041	10.2008	0.0000 
2169.258	7.4652	19.2041	10.1898	0.0000 
2169.258	7.4377	19.2041	10.1788	0.0000 
2169.258	7.4103	19.2096	10.1514	0.0000 
2169.284	7.3883	19.2261	10.1239	0.0000 
2169.308	7.3883	19.2316	10.1184	0.0000 
2169.328	7.3828	19.2261	10.1294	0.0000 
2169.338	7.3663	19.2316	10.1239	0.0000 
2169.357	7.3499	19.2480	10.1129	0.0000 
2169.428	7.3444	19.2645	10.0909	0.0000 
2169.439	7.3444	19.2755	10.0800	0.0000 
2169.439	7.3553	19.2700	10.0964	0.0000 
2169.445	7.3773	19.2645	10.1184	0.0000 
2169.460	7.3938	19.2480	10.1404	0.0000 
2169.482	7.3938	19.2206	10.1569	0.0000 
2169.504	7.3938	19.2151	10.1624	0.0000 
2169.516	7.4323	19.2261	10.1788	0.0000 
2169.601	7.4652	19.2206	10.1898	0.0000 
2169.612	7.4597	19.2261	10.1733	0.0000 
2169.613	7.4432	19.2316	10.1459	0.0000 
2169.613	7.4652	19.2426	10.1459	0.0000 
2169.619	7.4872	19.2480	10.1459	0.0000 
2169.635	7.4597	19.2590	10.1129	0.0000 
2169.655	7.4432	19.2755	10.0745	0.0000 
2169.678	7.4268	19.2865	10.0580	0.0000 
2169.700	7.4048	19.2865	10.0470	0.0000 
2169.722	7.3883	19.2920	10.0360	0.0000 
2169.746	7.3993	19.3030	10.0195	0.0000 
2169.756	7.3938	19.3085	10.0140	0.0000 
2169.837	7.3608	19.3140	9.9756	0.0000 
2169.847	7.3279	19.3250	9.9261	0.0000 
2169.847	7.3059	19.3414	9.8822	0.0000 
2169.848	7.3004	19.3579	9.8492	0.0000 
2169.854	7.2894	19.3689	9.8163	0.0000 
2169.873	7.2784	19.3689	9.7888	0.0000 
2169.893	7.2620	19.3744	9.7614	0.0000 
2169.913	7.2675	19.3909	9.7339	0.0000 
2169.936	7.2729	19.4073	9.7119	0.0000 
2170.015	7.2894	19.4238	9.6899	0.0000 
2170.028	7.3004	19.4458	9.6515	0.0000 
2170.028	7.3004	19.4678	9.6130	0.0000 
2170.028	7.2949	19.4843	9.5801	0.0000 
2170.035	7.2729	19.4897	9.5416	0.0000 
2170.052	7.2675	19.4952	9.5251	0.0000 
2170.072	7.2675	19.5007	9.5032	0.0000 
2170.095	7.2400	19.5007	9.4592	0.0000 
2170.115	7.2180	19.5117	9.4043	0.0000 
2170.138	7.1960	19.5062	9.3658	0.0000 
2170.162	7.1741	19.5062	9.3604	0.0000 
2170.172	7.1906	19.5172	9.3768	0.0000 
2170.255	7.2070	19.5337	9.3713	0.0000 
2170.267	7.1960	19.5502	9.3274	0.0000 
2170.267	7.1521	19.5612	9.2725	0.0000 
2170.267	7.0972	19.5721	9.2285	0.0000 
2170.273	7.0697	19.5831	9.2230	0.0000 
2170.290	7.0642	19.5941	9.2175	0.0000 
2170.311	7.0587	19.6051	9.2065	0.0000 
2170.331	7.0258	19.6161	9.1846	0.0000 
2170.355	6.9818	19.6381	9.1571	0.0000 
2170.429	6.9543	19.6545	9.1406	0.0000 
2170.439	6.9489	19.6765	9.1351	0.0000 
2170.439	6.9379	19.6820	9.1406	0.0000 
2170.439	6.9159	19.6820	9.1406	0.0000 
2170.450	6.8774	19.6820	9.1241	0.0000 
2170.469	6.8500	19.6820	9.1077	0.0000 
2170.489	6.8280	19.6820	9.0967	0.0000 
2170.510	6.8170	19.6820	9.0857	0.0000 
2170.530	6.8005	19.6820	9.0692	0.0000 
2170.550	6.7841	19.6765	9.0582	0.0000 
2170.571	6.7841	19.6600	9.0582	0.0000 
2170.665	6.7896	19.6436	9.0637	0.0000 
2170.672	6.7950	19.6216	9.0527	0.0000 
2170.673	6.7786	19.5996	9.0363	0.0000 
2170.673	6.7621	19.5776	9.0308	0.0000 
2170.673	6.7731	19.5612	9.0363	0.0000 
2170.696	6.7841	19.5337	9.0527	0.0000 
2170.709	6.7841	19.5117	9.0582	0.0000 
2170.729	6.8005	19.4952	9.0692	0.0000 
2170.749	6.8280	19.4788	9.0967	0.0000 
2170.769	6.8555	19.4788	9.1351	0.0000 
2170.841	6.8939	19.4733	9.1791	0.0000