StartTime: 2018-11-18 09:26:32.427
Time(s)	ax(g)	ay(g)	az(g)	AngleX(deg)	AngleY(deg)	AngleZ(deg)	T(Â°) 
1012.161	0.0015	0.2690	0.9946	14.6063	2.7356	-2.0050	23.7200 
1012.179	0.0034	0.2935	0.9937	14.6063	2.7411	-2.0325	23.7100 
1012.198	0.0103	0.2983	0.9878	14.6173	2.7246	-2.0380	23.7200 
1012.216	0.0093	0.2666	0.9810	14.6063	2.7026	-2.0160	23.7100 
1012.236	0.0103	0.2983	0.9824	14.5953	2.7136	-2.0544	23.7200 
1012.257	0.0078	0.3013	0.9858	14.5953	2.7191	-2.0819	23.7200 
1012.276	0.0107	0.2832	0.9858	14.5679	2.7026	-2.0764	23.7200 
1012.384	0.0039	0.2798	0.9897	14.5294	2.6917	-2.0819	23.6900 
1012.395	-0.0044	0.2842	0.9897	14.4855	2.6807	-2.0984	23.6900 
1012.396	0.0039	0.2925	0.9888	14.4525	2.6697	-2.1149	23.7000 
1012.396	0.0122	0.2803	0.9771	14.4196	2.6367	-2.1094	23.7200 
1012.396	0.0034	0.2822	0.9902	14.3866	2.6257	-2.1204	23.7100 
1012.415	0.0049	0.2935	0.9902	14.3591	2.6202	-2.1533	23.7000 
1012.435	0.0020	0.2827	0.9946	14.3317	2.6093	-2.1863	23.7000 
1012.457	-0.0029	0.2729	0.9956	14.2987	2.6038	-2.2357	23.7100 
1012.472	0.0005	0.2925	0.9775	14.2712	2.6038	-2.3071	23.6900 
1012.497	-0.0010	0.2876	0.9907	14.2493	2.5983	-2.3456	23.7000 
1012.498	-0.0054	0.2744	0.9883	14.2273	2.5818	-2.3456	23.6700 
1012.608	-0.0034	0.3042	0.9961	14.1998	2.5763	-2.3730	23.6600 
1012.633	0.0010	0.2896	0.9639	14.1724	2.5488	-2.3676	23.6800 
1012.633	-0.0054	0.3022	0.9707	14.1339	2.5433	-2.4060	23.6700 
1012.633	-0.0215	0.2969	1.0044	14.0955	2.5543	-2.4719	23.6700 
1012.633	-0.0244	0.2632	0.9907	14.0405	2.5323	-2.5214	23.6700 
1012.633	-0.0166	0.2964	0.9888	13.9746	2.5323	-2.5928	23.6800 
1012.652	0.0049	0.2871	0.9810	13.9197	2.5104	-2.5983	23.6800 
1012.755	0.0039	0.2656	0.9844	13.8483	2.4774	-2.5598	23.6800 
1012.778	0.0063	0.3296	0.9971	13.7933	2.4774	-2.5983	23.6600 
1012.778	0.0078	0.2979	0.9697	13.7384	2.4335	-2.5873	23.6700 
1012.778	-0.0049	0.2661	0.9849	13.6450	2.4060	-2.5873	23.6600 
1012.778	-0.0117	0.3076	1.0161	13.5681	2.4500	-2.6917	23.6600 
1012.778	-0.0034	0.2593	0.9937	13.5077	2.4390	-2.7521	23.6500 
1012.778	-0.0039	0.2910	0.9863	13.4418	2.4554	-2.8619	23.6600 
1012.794	-0.0049	0.3115	1.0059	13.4198	2.5104	-2.9608	23.6700 
1012.814	-0.0005	0.2261	0.9639	13.3539	2.4884	-2.9169	23.6700 
1012.834	-0.0117	0.2910	0.9805	13.2550	2.5488	-3.0652	23.6600 
1012.853	-0.0215	0.3311	0.9863	13.2001	2.6312	-3.3179	23.6500 
1012.955	-0.0249	0.3003	0.9780	13.1287	2.6367	-3.5046	23.6800 
1012.992	-0.0459	0.2456	0.9585	13.0023	2.6257	-3.7244	23.6500 
1012.992	-0.0557	0.3047	0.9600	12.8705	2.7026	-4.1144	23.6400 
1012.993	-0.0098	0.2871	1.0254	12.7167	2.7521	-4.3726	23.6500 
1012.993	0.0122	0.2090	0.9810	12.5079	2.7081	-4.5264	23.6400 
1012.994	-0.0313	0.3047	0.9775	12.3376	2.8180	-4.9384	23.6500 
1013.015	-0.0410	0.3276	1.0112	12.2113	2.9498	-5.2899	23.6300 
1013.034	-0.0049	0.2251	0.9727	12.0190	2.9663	-5.4272	23.6300 
1013.034	0.0254	0.2637	0.9741	11.7938	3.0377	-5.6030	23.6400 
1013.055	0.0313	0.2500	0.9985	11.5686	3.1036	-5.7184	23.6300 
1013.171	-0.0122	0.2158	1.0186	11.3159	3.2080	-5.8063	23.6300 
1013.193	-0.0361	0.1997	1.1016	11.0687	3.4003	-5.8557	23.6400 
1013.194	-0.0068	0.1831	0.9248	10.8270	3.4222	-5.8612	23.6200 
1013.194	0.0029	0.2300	1.0273	10.6073	3.6420	-5.8118	23.6300 
1013.194	0.0010	0.2231	1.0845	10.4205	3.8287	-5.5975	23.6100 
1013.194	0.0112	0.1592	0.9468	10.2502	3.8782	-5.2240	23.6200 
1013.194	0.0010	0.1699	0.9805	10.1184	3.9716	-4.8615	23.6200 
1013.212	0.0518	0.1733	1.0635	9.9701	4.0649	-4.4714	23.6300 
1013.230	0.0786	0.2041	0.9624	9.8712	4.0649	-4.1254	23.6200 
1013.251	0.0879	0.2563	1.0654	9.8053	4.1473	-3.8123	23.6300 
1013.271	0.0469	0.1372	1.0923	9.7064	4.1473	-3.4442	23.6100 
1013.370	0.0181	0.2549	0.9858	9.6844	4.1968	-3.4387	23.6100 
1013.378	0.0171	0.3281	1.0332	9.7449	4.2847	-3.4332	23.6100 
1013.379	0.0254	0.1123	0.9707	9.7229	4.1638	-3.0981	23.6100 
1013.379	0.0425	0.2183	0.9878	9.6899	4.1473	-2.9938	23.6000 
1013.379	0.0513	0.3076	1.0459	9.7614	4.1144	-2.9114	23.5900 
1013.411	0.0723	0.2246	0.9932	9.8163	3.9496	-2.6697	23.5900 
1013.432	0.0742	0.3013	0.9995	9.8822	3.8617	-2.5708	23.5900 
1013.432	0.0796	0.3242	0.9810	9.9756	3.8123	-2.5159	23.5800 
1013.452	0.0786	0.2363	0.9673	10.0250	3.7299	-2.3730	23.5900 
1013.471	0.0767	0.2837	0.9912	10.0580	3.7134	-2.3840	23.6000 
1013.577	0.0586	0.2651	1.0063	10.1129	3.6804	-2.4280	23.6000 
1013.608	0.0518	0.2378	0.9800	10.1459	3.6200	-2.4609	23.5900 
1013.608	0.0620	0.3057	0.9849	10.2008	3.6035	-2.5708	23.5900 
1013.609	0.0679	0.2593	0.9756	10.2502	3.5431	-2.5708	23.5900 
1013.609	0.0610	0.2178	0.9814	10.2612	3.4882	-2.5543	23.6000 
1013.609	0.0542	0.2529	0.9790	10.2997	3.4717	-2.6257	23.5800 
1013.628	0.0469	0.2285	0.9907	10.3436	3.4332	-2.6312	23.5900 
1013.651	0.0435	0.2139	0.9854	10.3821	3.3783	-2.5818	23.5700 
1013.672	0.0469	0.2554	0.9756	10.4755	3.3453	-2.5433	23.5700 
1013.672	0.0723	0.2969	0.9766	10.6073	3.3179	-2.4390	23.5700 
1013.689	0.1328	0.3276	0.9824	10.7446	3.2629	-2.1973	23.5600 
1013.782	0.1431	0.2925	0.9775	10.8545	3.1970	-1.8896	23.5800 
1013.795	0.0947	0.2622	0.9658	10.9424	3.2520	-1.6864	23.5600 
1013.796	0.0625	0.2578	0.9453	11.0413	3.4113	-1.6040	23.5500 
1013.796	0.0591	0.2949	1.0063	11.1127	3.6475	-1.5216	23.5600 
1013.796	0.1060	0.3379	1.0142	11.1676	3.8507	-1.3788	23.5500 
1013.811	0.1045	0.2646	1.0278	11.2280	3.9935	-1.0767	23.5500 
1013.829	0.0708	0.2598	1.0371	11.2885	4.1803	-0.8185	23.5500 
1013.850	0.0498	0.3384	1.0566	11.4038	4.4495	-0.6702	23.5300 
1013.868	0.0659	0.3203	1.0430	11.5521	4.6582	-0.3571	23.5300 
1013.890	0.1006	0.3066	1.0068	11.6949	4.7900	0.1099	23.5600 
1014.004	0.1157	0.3066	0.9854	11.8597	4.9438	0.5878	23.5200 
1014.029	0.0801	0.2456	0.9648	12.0795	5.0867	1.1151	23.5100 
1014.029	-0.1118	0.1362	1.2153	12.2992	5.4053	1.5546	23.5300 
1014.029	-0.0576	0.3853	1.2168	12.5519	5.7404	1.6205	23.5000 
1014.029	0.0132	0.4336	1.1460	12.9474	5.8447	2.0325	23.5100 
1014.029	-0.0581	0.1924	1.2119	13.1561	5.8722	2.7301	23.5000 
1014.029	-0.1685	0.3164	1.1060	13.3374	6.1304	2.6752	23.5000 
1014.050	-0.2495	0.3193	1.0015	13.6395	6.4215	2.3950	23.5000 
1014.068	-0.3633	0.0352	0.9355	13.7604	6.6687	2.3126	23.4800 
1014.089	-0.3579	0.0532	0.9541	13.7274	6.9763	2.0050	23.4900 
1014.109	-0.2319	0.2856	1.0708	13.7164	7.1521	1.8402	23.4900 
1014.230	-0.1743	0.2124	1.0225	13.6780	6.9928	2.1259	23.4800 
1014.245	-0.1367	0.1543	0.9814	13.5736	6.8445	2.3071	23.4800 
1014.246	-0.1362	0.2749	0.9854	13.5242	6.8390	2.2302	23.4700 
1014.246	-0.1665	0.1919	0.9263	13.4967	6.7566	2.2577	23.4700 
1014.246	-0.1670	0.1572	0.8774	13.4143	6.6742	2.2577	23.4600 
1014.246	-0.1411	0.2715	0.8770	13.3868	6.6467	2.1533	23.4800 
1014.264	-0.1157	0.2686	0.8638	13.3978	6.5094	2.1973	23.4700 
1014.286	-0.1001	0.2021	0.8506	13.3704	6.3116	2.3071	23.4600 
1014.300	-0.1133	0.2295	0.8818	13.3429	6.2018	2.2302	23.4500 
1014.329	-0.1382	0.2700	0.9233	13.3264	6.1414	2.0380	23.4400 
1014.329	-0.1289	0.2651	0.9336	13.3044	6.0480	1.8896	23.4300 
1014.427	-0.1133	0.2817	0.9556	13.2880	5.9381	1.8073	23.4300 
1014.445	-0.0923	0.3149	0.9580	13.3044	5.7953	1.7853	23.4100 
1014.445	-0.0693	0.3066	0.9253	13.3319	5.5811	1.8677	23.4300 
1014.445	-0.0586	0.2944	0.9155	13.3594	5.3448	1.9666	23.4400 
1014.445	-0.0483	0.3604	0.9312	13.4143	5.1471	1.9830	23.4200 
1014.445	-0.0522	0.3560	0.9321	13.4967	4.9219	2.0380	23.4400 
1014.464	-0.0542	0.3130	0.9014	13.5681	4.6637	2.1039	23.4300 
1014.485	-0.0542	0.3540	0.9087	13.6725	4.4714	2.0709	23.4200 
1014.507	-0.0708	0.3555	0.9512	13.7878	4.3011	2.0215	23.4200 
1014.527	-0.0815	0.3203	0.9790	13.8483	4.1473	1.9666	23.4200 
1014.627	-0.1099	0.3521	0.9951	13.9307	4.0649	1.7853	23.4000 
1014.648	-0.0972	0.4009	0.9980	14.0735	4.0045	1.5710	23.4100 
1014.648	-0.0879	0.3643	1.0107	14.2108	3.8782	1.4941	23.4100 
1014.648	-0.0791	0.3657	1.0371	14.2987	3.7573	1.4282	23.3900 
1014.648	-0.0596	0.4121	1.0625	14.4031	3.6639	1.3184	23.4100 
1014.648	-0.0508	0.3618	1.1147	14.5074	3.5376	1.2415	23.3900 
1014.665	-0.0581	0.3730	1.2104	14.6393	3.4113	1.1096	23.3900 
1014.686	-0.0542	0.3882	1.1880	14.8370	3.2300	1.0107	23.3900 
1014.707	-0.0088	0.2598	1.1216	14.9854	2.9224	1.1646	23.3900 
1014.725	0.0396	0.2451	1.0449	15.0842	2.6367	1.3678	23.3900 
1014.836	0.1025	0.2222	0.9326	15.1501	2.4005	1.5820	23.3900 
1014.842	0.1631	0.1763	0.9360	15.1007	2.1808	1.8402	23.3900 
1014.842	0.1880	0.0752	1.0254	14.8975	2.0050	2.0160	23.3700 
1014.842	0.1313	0.0366	1.1045	14.6283	1.9501	1.9501	23.3800 
1014.842	0.0234	0.1187	1.1953	14.3976	2.0929	1.4777	23.3900 
1014.842	-0.0308	0.1479	1.1943	14.2163	2.2632	0.9119	23.3800 
1014.862	-0.0542	0.1255	1.0864	14.0350	2.3401	0.5438	23.3600 
1014.973	-0.0308	0.1470	0.9595	13.8812	2.3511	0.3076	23.3700 
1014.995	0.0000	0.1924	0.8896	13.8043	2.3511	0.1813	23.3700 
1014.996	0.0547	0.1733	0.8135	13.7604	2.2961	0.2252	23.3700 
1014.996	0.0791	0.1855	0.7964	13.7054	2.3071	0.2087	23.3600 
1014.996	0.0820	0.2593	0.8325	13.6615	2.4500	0.0934	23.3700 
1014.996	0.0698	0.2163	0.8555	13.5736	2.5818	0.0714	23.3600 
1015.015	0.0591	0.1880	0.9131	13.3923	2.7301	0.0549	23.3500 
1015.043	0.0737	0.2407	0.9316	13.2220	2.8674	-0.0055	23.3400 
1015.062	0.0742	0.2119	0.9595	13.0792	2.9114	0.0494	23.3500 
1015.082	0.0771	0.2153	1.0044	12.9584	2.9498	0.1318	23.3300 
1015.180	0.0894	0.3071	1.0161	12.9364	2.9773	0.1648	23.3400 
1015.197	0.0830	0.2808	0.9829	12.9584	2.9333	0.3680	23.3300 
1015.197	0.0513	0.2534	0.9619	12.9364	2.9059	0.6482	23.3400 
1015.197	0.0605	0.2578	0.9263	12.8979	2.8674	0.9119	23.3300 
1015.197	0.0747	0.2710	0.9346	12.8595	2.8729	1.1646	23.3200 
1015.197	0.0933	0.3115	0.9438	12.8540	2.9004	1.3788	23.3100 
1015.221	0.0977	0.3247	0.9785	12.8870	2.9114	1.6315	23.3300 
1015.241	0.1108	0.3340	1.0142	12.9034	2.9224	1.8951	23.3200 
1015.262	0.1426	0.3677	1.0513	12.9089	2.9608	2.0874	23.3000 
1015.262	0.1504	0.3662	1.0669	12.9034	3.0267	2.2192	23.3100 
1015.280	0.1138	0.3120	1.0737	12.8705	3.1476	2.2687	23.3100 
1015.301	0.0542	0.2983	1.0913	12.8430	3.3508	2.2083	23.3000 
1015.322	0.0249	0.3438	1.0869	12.8979	3.5925	2.1259	23.3000 
1015.343	0.0093	0.2930	1.1060	13.0188	3.7518	2.2742	23.2900 
1015.450	-0.0098	0.2910	1.2036	13.1726	3.8837	2.5323	23.3000 
1015.462	0.0269	0.3828	1.1636	13.4088	3.9441	2.7850	23.3000 
1015.462	0.0137	0.2217	1.0479	13.7000	3.8177	3.2684	23.3000 
1015.462	-0.0732	0.0366	0.9814	13.8373	3.7463	3.6090	23.2800 
1015.462	-0.1743	0.1733	0.9492	13.9142	4.0485	3.1750	23.2800 
1015.462	-0.2505	0.1396	1.0220	13.9856	4.5044	2.6093	23.2600 
1015.479	-0.3472	0.0015	1.1704	13.9471	4.8889	2.0819	23.2600 
1015.499	-0.2661	0.2983	1.3120	13.8483	5.2844	1.5051	23.2500 
1015.594	-0.1074	0.3120	1.1670	13.8208	5.1801	1.5710	23.2700 
1015.609	-0.0654	0.0859	1.0142	13.7274	4.7296	2.1863	23.2800 
1015.609	0.0210	0.3477	0.9116	13.6560	4.5428	2.4115	23.2500 
1015.609	0.0718	0.4287	0.8208	13.7164	4.3781	2.6917	23.2600 
1015.609	0.0728	0.0820	0.6792	13.6121	3.9990	3.4222	23.2400 
1015.625	0.0259	0.1333	0.7129	13.4308	3.8617	3.6584	23.2300 
1015.646	-0.0576	0.3169	0.8438	13.3868	3.9551	3.3728	23.2400 
1015.659	-0.0850	0.1753	0.8364	13.3209	3.8892	3.2355	23.2200 
1015.679	-0.0776	0.2690	0.9346	13.1726	3.9001	2.9443	23.2300 
1015.699	-0.0420	0.3633	0.9692	13.0902	3.9496	2.5653	23.2200 
1015.805	0.0093	0.2563	0.9214	13.0023	3.8452	2.4664	23.2200 
1015.830	0.0112	0.2349	0.8975	12.8979	3.7903	2.3346	23.2000 
1015.831	-0.0596	0.3110	0.8984	12.8870	3.9606	1.8512	23.1900 
1015.831	-0.1006	0.3311	0.8926	12.9529	4.1913	1.2469	23.2000 
1015.831	-0.1250	0.2974	0.9189	13.0023	4.3835	0.7581	23.2000 
1015.831	-0.1265	0.2983	0.9253	13.0188	4.5154	0.3076	23.1800 
1015.845	-0.1104	0.3335	0.9932	13.0298	4.5813	-0.1538	23.1800 
1015.862	-0.0991	0.3247	0.9980	13.0518	4.5374	-0.5713	23.1500 
1015.878	-0.0913	0.3145	1.0029	13.1287	4.4110	-0.9503	23.1700 
1015.898	-0.0996	0.3188	1.0313	13.2495	4.2682	-1.2964	23.1700 
1015.920	-0.1021	0.3413	1.1284	13.3704	4.1473	-1.6095	23.1700 
1015.999	0.0029	0.4229	1.3276	13.4473	3.9716	-1.7798	23.1500 
1016.011	0.0479	0.3154	1.3203	13.5297	3.5651	-1.5820	23.1500 
1016.012	0.0684	0.1704	1.2764	13.5406	3.2245	-1.3513	23.1700 
1016.012	0.1294	0.2686	1.1606	13.5626	3.0322	-1.2854	23.1500 
1016.028	0.1558	0.0718	0.9780	13.4747	2.7521	-0.9393	23.1300 
1016.049	0.1470	-0.0366	0.9580	13.1287	2.6257	-0.7635	23.1400 
1016.075	0.0347	0.0049	1.1797	12.7881	2.8729	-1.2305	23.1400 
1016.096	-0.0518	0.0571	1.2651	12.5793	3.2025	-2.0654	23.1300 
1016.115	-0.0688	0.1997	1.1968	12.5024	3.4332	-2.8839	23.1200 
1016.214	-0.0361	0.1699	1.0347	12.4530	3.4552	-3.3563	23.1300 
1016.236	-0.0039	0.0981	0.9033	12.3157	3.5156	-3.6475	23.1100 
1016.236	0.0122	0.1226	0.8774	12.2003	3.7189	-3.9551	23.1000 
1016.236	0.0396	0.1431	0.8057	12.1509	3.9056	-4.2242	23.0900 
1016.236	0.0542	0.1787	0.8140	12.1344	4.0814	-4.4604	23.0900 
1016.236	0.0742	0.1870	0.8022	12.1289	4.1913	-4.6033	23.0900 
1016.236	0.0693	0.1538	0.7983	12.0795	4.2792	-4.7076	23.0700 
1016.257	0.0342	0.1621	0.8682	11.9861	4.4604	-4.9109	23.0600 
1016.276	0.0200	0.1704	0.8901	11.9037	4.6307	-5.1141	23.0600 
1016.296	0.0078	0.1660	0.9063	11.8433	4.7461	-5.2460	23.0600 
1016.315	0.0088	0.2017	0.9497	11.7993	4.8395	-5.3558	23.0600 
1016.336	0.0332	0.2500	0.9932	11.8268	4.8505	-5.3284	23.0500 
1016.358	0.0347	0.2344	1.0269	11.8762	4.7845	-5.1526	23.0500 
1016.379	0.0239	0.2476	1.0435	11.9586	4.6912	-4.9274	23.0500 
1016.474	0.0220	0.2568	1.0352	12.0575	4.6143	-4.6912	23.0200 
1016.494	0.0679	0.3428	1.0361	12.1838	4.5813	-4.4330	23.0300 
1016.494	0.1187	0.3760	1.0024	12.3486	4.5264	-4.0540	23.0300 
1016.494	0.1318	0.2861	0.9927	12.4805	4.4769	-3.5486	23.0200 
1016.494	0.0737	0.2202	0.9546	12.6233	4.4934	-3.1860	23.0100 
1016.494	-0.1147	0.2153	1.1450	12.8870	4.7296	-3.0762	23.0200 
1016.513	-0.1929	0.2959	1.3203	13.2166	5.0317	-3.0322	23.0300 
1016.533	-0.1021	0.4502	1.1753	13.6230	5.0208	-2.7631	23.0100 
1016.553	-0.0723	0.2085	1.0811	13.9362	4.7241	-2.0490	23.0100 
1016.575	-0.1685	0.0688	0.9731	13.9581	4.7516	-1.8622	23.0000 
1016.674	-0.2559	0.2598	1.0796	14.0021	5.3668	-2.3895	23.0100 
1016.693	-0.3691	0.1602	1.1699	14.0570	5.8942	-2.6422	23.0000 
1016.694	-0.3179	0.2275	1.2339	13.9856	6.1798	-2.5983	22.9800 
1016.694	-0.0835	0.3828	1.1196	13.8977	6.0809	-2.1918	22.9900 
1016.694	0.0078	0.2334	0.9541	13.7988	5.6085	-1.3019	22.9800 
1016.694	0.0210	0.1934	0.8374	13.6340	5.2185	-0.5109	22.9700 
1016.712	-0.0234	0.2417	0.7993	13.4967	5.0372	-0.0549	22.9800 
1016.733	-0.0820	0.2383	0.7593	13.3429	4.9164	0.2142	22.9900 
1016.751	-0.0913	0.2153	0.7427	13.1506	4.7955	0.4504	22.9700 
1016.776	-0.0723	0.2744	0.7705	12.9529	4.6912	0.6537	22.9700 
1016.876	-0.0591	0.2651	0.7993	12.7771	4.5319	0.9393	22.9500 
1016.892	-0.0347	0.2021	0.8711	12.4805	4.3726	1.2689	22.9400 
1016.892	-0.0347	0.2207	0.9214	12.1509	4.2957	1.4392	22.9400 
1016.892	-0.0542	0.3018	0.9429	11.9641	4.2902	1.4008	22.9400 
1016.892	-0.0591	0.2983	0.9087	11.8817	4.2407	1.3458	22.9300 
1016.893	-0.0757	0.3140	0.9199	11.8378	4.2188	1.2799	22.9300 
1016.911	-0.0962	0.3472	0.9678	11.8158	4.2407	1.2030	22.9100 
1016.931	-0.0986	0.3584	0.9863	11.8103	4.2133	1.1975	22.9200 
1016.951	-0.0698	0.3062	1.0723	11.7444	4.1089	1.3184	22.9400 
1016.970	-0.0591	0.2944	1.0586	11.6785	3.9441	1.4227	22.9200 
1017.044	-0.0684	0.3296	1.0581	11.6895	3.8068	1.4392	22.9200 
1017.061	-0.0938	0.3389	1.0586	11.7389	3.6914	1.4832	22.9200 
1017.062	-0.0571	0.3696	1.0532	11.7993	3.5321	1.5930	22.9100 
1017.062	0.0127	0.3691	1.1294	11.8488	3.3014	1.8182	22.9100 
1017.092	0.0903	0.2793	1.1860	11.9202	2.9279	2.2028	22.9000 
1017.092	0.0781	0.1250	1.1758	12.0135	2.4994	2.5983	22.9000 
1017.111	0.1191	0.1509	1.2637	12.0795	2.3181	2.8290	22.9200 
1017.130	0.1729	0.1499	1.2808	12.0630	2.1863	3.2080	22.9000 
1017.150	0.1880	-0.0176	1.1973	11.8323	2.0050	3.6145	22.9100 
1017.171	0.1387	-0.0127	1.2197	11.5576	2.0874	3.4882	22.9000 
1017.268	-0.0532	0.0771	1.3281	11.4423	2.4829	2.7686	22.8900 
1017.290	-0.0913	0.2197	1.2358	11.4752	2.9114	1.8292	22.8900 
1017.290	-0.0034	0.2993	0.9292	11.6345	3.1531	1.1700	22.8900 
1017.290	0.0288	0.1172	0.7573	11.7224	3.2574	0.9503	22.8800 
1017.290	0.0352	0.0161	0.6787	11.6400	3.5321	0.6262	22.8600 
1017.291	0.0308	0.1338	0.7515	11.5906	4.0375	-0.0824	22.8600 
1017.310	0.0181	0.1479	0.8242	11.5796	4.4714	-0.7910	22.8600 
1017.331	0.0269	0.0972	0.8286	11.4972	4.7681	-1.3568	22.8500 
1017.354	0.0249	0.1426	0.8877	11.3983	5.0702	-1.9391	22.8600 
1017.371	-0.0010	0.1226	0.9424	11.3214	5.3229	-2.3950	22.8400 
1017.476	0.0054	0.1250	0.9263	11.2445	5.4767	-2.7576	22.8500 
1017.495	0.0425	0.2480	0.9419	11.2445	5.6195	-3.1476	22.8500 
1017.496	0.0537	0.2544	0.9634	11.3159	5.6689	-3.3398	22.8400 
1017.496	0.0342	0.1782	0.9800	11.3434	5.6799	-3.3398	22.8400 
1017.496	-0.0083	0.2568	1.0376	11.3928	5.7733	-3.4662	22.8500 
1017.496	-0.0396	0.2656	1.0366	11.5137	5.8722	-3.4991	22.8300 
1017.511	-0.0703	0.1821	1.0171	11.6510	5.9052	-3.3234	22.8300 
1017.531	-0.0479	0.2573	1.0400	11.8268	6.0040	-3.1476	22.8200 
1017.550	0.0454	0.3960	0.9917	12.1124	6.0535	-2.8564	22.8200 
1017.569	0.0938	0.3306	0.9541	12.4146	5.9436	-2.2632	22.8100 
1017.673	0.0288	0.1748	0.9302	12.7002	5.8173	-1.6534	22.8100 
1017.694	-0.1162	0.2056	1.1235	13.0518	5.9546	-1.4008	22.8000 
1017.694	-0.1748	0.4038	1.2969	13.4253	6.1304	-1.2909	22.8000 
1017.694	-0.1147	0.4141	1.0645	13.8153	5.9216	-0.9393	22.8000 
1017.694	-0.1802	0.0835	0.9575	14.0625	5.6909	-0.4504	22.8000 
1017.694	-0.2329	0.1807	1.0298	14.1174	5.8887	-0.4889	22.7900 
1017.715	-0.3032	0.1880	1.1260	14.1174	6.2018	-0.6757	22.7900 
1017.730	-0.3569	0.1235	1.2407	14.0295	6.4270	-0.7086	22.7800 
1017.749	-0.1899	0.4033	1.2944	13.8757	6.5314	-0.6592	22.8000 
1017.771	-0.0737	0.3442	1.1929	13.7439	6.2732	-0.1318	22.7900 
1017.862	-0.0190	0.1836	0.9775	13.5626	5.8337	0.6812	22.7900 
1017.877	-0.0278	0.2881	0.9126	13.4088	5.6635	1.2140	22.7800 
1017.878	-0.0322	0.2637	0.7446	13.3429	5.4932	1.6315	22.7700 
1017.878	-0.0562	0.2070	0.6812	13.2440	5.3119	2.0160	22.7700 
1017.878	-0.0811	0.2227	0.7241	13.1067	5.2734	2.1808	22.7800 
1017.897	-0.1025	0.2173	0.7485	12.9694	5.2295	2.2852	22.7600 
1017.909	-0.1138	0.2207	0.7939	12.8265	5.1855	2.3950	22.7600 
1017.929	-0.0942	0.1948	0.8599	12.6727	5.0757	2.5653	22.7500 
1017.948	-0.0708	0.2251	0.8921	12.5354	4.9548	2.6752	22.7600 
1017.967	-0.0317	0.3486	0.9380	12.4915	4.8285	2.6971	22.7600 
1017.986	-0.0322	0.3384	0.9067	12.5134	4.6198	2.8070	22.7500 
1018.008	-0.0806	0.2759	0.9565	12.5134	4.4879	2.8674	22.7400 
1018.025	-0.1113	0.3491	0.9873	12.5629	4.4659	2.6862	22.7500 
1018.138	-0.1196	0.4160	1.0220	12.6453	4.4000	2.5763	22.7400 
1018.163	-0.0840	0.3726	1.0020	12.6727	4.1583	2.6862	22.7500 
1018.164	-0.0386	0.3667	0.9951	12.6617	3.8452	2.7960	22.7500 
1018.164	-0.0332	0.3857	1.0088	12.6837	3.5211	2.8400	22.7500 
1018.164	-0.0474	0.3530	0.9126	12.7826	3.1201	2.8564	22.7500 
1018.164	-0.0522	0.3799	0.9263	12.9144	2.7960	2.8070	22.7400 
1018.182	0.0273	0.3696	1.1177	13.0133	2.4500	2.8400	22.7300 
1018.287	0.1069	0.3179	1.1753	13.0737	1.9720	3.1036	22.7400 
1018.313	0.1509	0.1597	1.1221	13.0957	1.4447	3.4717	22.7500 
1018.313	0.2041	0.1382	1.2363	12.9913	1.1426	3.7299	22.7200 
1018.313	0.1909	0.0483	1.4424	12.6892	1.0547	4.1144	22.7200 
1018.313	0.2021	0.0020	1.2588	12.3486	0.8295	4.4275	22.7000 
1018.313	0.1094	0.0483	1.2363	12.0465	0.8514	4.2627	22.7000 
1018.314	-0.0225	0.0493	1.3760	11.7993	1.1151	3.8562	22.7000 
1018.343	-0.0269	0.1895	1.1719	11.6785	1.3239	3.2520	22.7100 
1018.363	0.0532	0.3047	0.9531	11.7554	1.4557	2.7740	22.7100 
1018.385	0.1289	0.1064	0.6982	11.8103	1.4392	2.7905	22.6900 
1018.493	0.1255	0.0039	0.6245	11.7004	1.5546	2.7795	22.6900 
1018.511	0.0640	0.1396	0.7837	11.5906	2.1039	2.1863	22.6800 
1018.511	0.0234	0.2070	0.8452	11.5686	2.7136	1.4172	22.6800 
1018.511	0.0469	0.1118	0.8384	11.5027	3.1036	0.9943	22.6600 
1018.511	0.0576	0.0923	0.8662	11.3708	3.3783	0.7306	22.6500 
1018.511	0.0635	0.1709	0.9404	11.2665	3.6310	0.3900	22.6600 
1018.511	0.0708	0.1880	0.9629	11.2061	3.8342	0.0494	22.6500 
1018.529	0.0708	0.1997	0.9639	11.1786	4.0100	-0.2582	22.6400 
1018.543	0.0537	0.2329	1.0024	11.2170	4.2297	-0.5878	22.6400 
1018.563	0.0313	0.2734	1.0361	11.3214	4.4495	-0.8624	22.6400 
1018.583	0.0220	0.2544	1.0381	11.4478	4.6088	-0.9668	22.6400 
1018.604	-0.0122	0.2090	1.0190	11.5851	4.7351	-0.9503	22.6400 
1018.708	-0.0171	0.2842	1.0273	11.7554	4.9219	-0.9833	22.6300 
1018.714	0.0674	0.4307	1.0015	11.9806	5.0757	-0.9393	22.6300 
1018.714	0.1440	0.3877	0.9473	12.1783	5.0757	-0.6537	22.6300 
1018.714	0.1445	0.2490	0.9063	12.2717	5.0867	-0.3571	22.6300 
1018.714	0.0210	0.1836	0.9092	12.3926	5.2625	-0.3406	22.6300 
1018.739	-0.1704	0.2402	1.0884	12.6288	5.6799	-0.5713	22.6200 
1018.765	-0.2192	0.2949	1.2798	12.9034	6.0809	-0.6372	22.6100 
1018.783	-0.0903	0.3516	1.0630	13.1561	6.0040	-0.4010	22.6000 
1018.783	-0.0859	0.1382	1.0049	13.3209	5.7898	0.0824	22.6200 
1018.804	-0.2324	0.0767	1.0308	13.2440	6.0260	-0.0989	22.5900 
1018.905	-0.3115	0.2451	1.1064	13.2220	6.6138	-0.9119	22.5700 
1018.930	-0.4038	0.1870	1.3711	13.1781	7.1466	-1.3129	22.5900 
1018.930	-0.2656	0.2339	1.3188	13.0243	7.2784	-1.3403	22.5800 
1018.930	-0.1475	0.2437	1.2646	12.8156	7.0807	-1.0437	22.5700 
1018.930	-0.0918	0.2065	1.0303	12.6837	6.7566	-0.6207	22.5500 
1018.930	-0.0952	0.2480	0.9438	12.6288	6.5424	-0.1923	22.5700 
1018.960	-0.0923	0.2070	0.7485	12.5739	6.2897	0.3131	22.5500 
1018.979	-0.0894	0.1660	0.7031	12.4750	6.0754	0.8020	22.5600 
1019.002	-0.0552	0.2017	0.6919	12.3926	5.8777	1.1810	22.5300 
1019.003	-0.0918	0.1919	0.7183	12.2992	5.7294	1.4886	22.5300 
1019.020	-0.1001	0.2437	0.7847	12.1729	5.6195	1.7468	22.5500 
1019.039	-0.0967	0.2119	0.8237	11.9916	5.4822	2.1259	22.5400 
1019.060	-0.0776	0.1787	0.8628	11.7609	5.3558	2.4554	22.5300 
1019.169	-0.0571	0.2720	0.8984	11.6125	5.3119	2.5378	22.5300 
1019.195	-0.0688	0.3418	0.9175	11.5906	5.2570	2.6587	22.5100 
1019.195	-0.0874	0.3042	0.9409	11.5466	5.1801	2.9059	22.5200 
1019.195	-0.1099	0.3457	0.9644	11.5247	5.1196	3.0597	22.5100 
1019.195	-0.0928	0.4023	0.9976	11.5411	5.0317	3.2135	22.5100 
1019.195	-0.0591	0.3516	1.0073	11.5356	4.7955	3.5486	22.5100 
1019.212	-0.0425	0.3174	0.9917	11.5247	4.4989	3.9386	22.5300 
1019.232	-0.0620	0.3467	1.0205	11.5576	4.2407	4.2572	22.5100 
1019.247	-0.0791	0.3608	1.0640	11.6345	3.9935	4.6252	22.4900 
1019.261	-0.0391	0.3564	1.2437	11.6675	3.7354	5.2185	22.5000 
1019.280	0.0498	0.3667	1.3203	11.6180	3.4058	5.9985	22.4900 
1019.386	0.1558	0.2759	1.2437	11.4972	2.9443	7.0038	22.5100 
1019.414	0.1831	0.1533	1.1733	11.2939	2.5214	8.0695	22.4900 
1019.414	0.1484	0.0562	1.0991	11.0413	2.3401	8.9209	22.4900 
1019.414	0.1094	-0.0479	1.1108	10.7227	2.3401	9.4647	22.4800 
1019.414	0.0762	0.0186	1.2622	10.4260	2.5708	9.4482	22.4800 
1019.414	0.0176	0.0752	1.3477	10.2667	2.9004	9.0417	22.4700 
1019.428	-0.0356	0.1333	1.2612	10.1843	3.1201	8.5144	22.4800 
1019.533	-0.0293	0.1709	1.1787	10.1294	3.2794	7.9980	22.4700 
1019.557	0.0166	0.0845	0.9658	10.0580	3.3508	7.6794	22.4500 
1019.558	0.0522	0.0786	0.8682	10.0031	3.4662	7.3499	22.4500 
1019.558	0.0894	0.1606	0.8125	10.0470	3.6859	6.8939	22.4200 
1019.558	0.0791	0.0981	0.8062	10.1019	3.9001	6.4984	22.4200 
1019.558	0.0654	0.1172	0.7739	10.1019	4.1199	5.9546	22.4100 
1019.558	0.0435	0.1719	0.8657	10.0854	4.4220	5.2789	22.4200 
1019.578	0.0508	0.1016	0.9014	9.9756	4.6417	4.7626	22.4100 
1019.597	0.0483	0.0576	0.8706	9.8383	4.7955	4.3121	22.4000 
1019.616	0.0566	0.1675	0.8721	9.8053	5.0153	3.7024	22.4000 
1019.635	0.0513	0.1997	0.8950	9.8712	5.2405	3.1091	22.4000 
1019.738	0.0288	0.1831	0.9170	9.9756	5.3943	2.6807	22.3800 
1019.762	-0.0005	0.1831	0.9453	10.0909	5.5426	2.2906	22.3900 
1019.762	-0.0342	0.1777	0.9795	10.2283	5.6909	1.9666	22.3800 
1019.762	-0.0347	0.2070	1.0098	10.4041	5.8447	1.7413	22.3900 
1019.763	0.0366	0.3418	1.0034	10.6622	5.9766	1.6425	22.3700 
1019.763	0.1138	0.3887	0.9507	11.0028	5.9985	1.7139	22.3600 
1019.777	0.1450	0.2729	0.9326	11.3214	5.9766	1.9830	22.3500 
1019.797	0.0488	0.1821	0.9600	11.5851	6.0864	2.1533	22.3600 
1019.817	-0.2349	0.1455	1.2974	11.8158	6.5533	1.9116	22.3600 
1019.839	-0.2998	0.3628	1.4741	12.0300	7.1411	1.4392	22.3400 
1019.932	-0.2529	0.4717	1.3462	12.3267	7.2894	1.2415	22.3400 
1019.940	-0.2231	0.1055	1.0083	12.5024	7.1466	1.4282	22.3300 
1019.940	-0.2568	0.0894	0.9829	12.5299	7.3883	1.1700	22.3500 
1019.940	-0.3428	0.1274	1.1045	12.5079	7.7454	0.9338	22.3400 
1019.940	-0.4404	-0.0435	1.2236	12.3431	7.9376	0.9009	22.3400 
1019.957	-0.2734	0.3071	1.1777	12.1729	7.9761	0.7196	22.3300 
1019.975	-0.1777	0.3345	1.1050	12.1783	7.6465	1.2030	22.3100 
1019.994	-0.0806	0.0903	0.8535	12.1069	7.0532	2.1698	22.3300 
1020.016	-0.0508	0.1709	0.8442	11.9092	6.7401	2.8729	22.3200 
1020.041	-0.0669	0.2017	0.8022	11.7334	6.4764	3.4222	22.3300 
1020.128	-0.0693	0.1519	0.7671	11.5302	6.2183	3.8837	22.3200 
1020.143	-0.0928	0.1812	0.7827	11.3599	6.0590	4.1583	22.3000 
1020.143	-0.0918	0.2466	0.8193	11.2720	5.8997	4.3835	22.3100 
1020.143	-0.0659	0.1860	0.8491	11.1292	5.6360	4.7681	22.3000 
1020.143	-0.0425	0.1963	0.8989	10.9149	5.3943	5.0812	22.2900 
1020.162	-0.0298	0.2856	0.9331	10.7776	5.2185	5.2185	22.3100 
1020.177	-0.0391	0.2817	0.9106	10.7281	5.0262	5.3448	22.2900 
1020.194	-0.0747	0.2656	0.9058	10.7062	4.8889	5.3778	22.2900 
1020.212	-0.0986	0.3252	0.9321	10.7117	4.8505	5.2734	22.2900 
1020.232	-0.1040	0.3711	0.9502	10.7501	4.7681	5.1855	22.3000 
1020.253	-0.0742	0.3462	0.9453	10.7666	4.5703	5.1746	22.3000 
1020.276	-0.0649	0.2905	0.9785	10.7556	4.3396	5.1746	22.2900 
1020.292	-0.0601	0.2910	0.9902	10.7776	4.1089	5.0922	22.2800 
1020.312	-0.0854	0.3193	1.0181	10.8655	3.8672	4.9548	22.2900 
1020.424	-0.0688	0.3657	1.0488	10.9863	3.5925	4.8669	22.2700 
1020.445	0.0156	0.3467	1.3232	11.0687	3.2574	5.0262	22.2600 
1020.446	0.1318	0.3174	1.3691	11.0797	2.7576	5.4657	22.2800 
1020.446	0.2207	0.1475	1.1851	11.1127	2.1259	6.0095	22.2800 
1020.446	0.2690	0.1655	1.2109	11.0742	1.7633	6.4105	22.2700 
1020.446	0.1792	-0.0151	1.2231	10.9534	1.5765	6.8665	22.2700 
1020.461	0.1099	-0.1372	1.1812	10.7062	1.4337	7.1301	22.2600 
1020.555	0.0122	0.0190	1.2905	10.4810	1.6370	6.6632	22.2700 
1020.582	-0.0562	0.1611	1.3218	10.4315	1.9666	5.8832	22.2700 
1020.582	-0.0107	0.1958	1.1099	10.4590	2.1039	5.3284	22.2600 
1020.582	0.0664	0.1919	0.9014	10.5084	2.1313	4.9988	22.2400 
1020.582	0.1147	0.0977	0.7056	10.5634	2.1918	4.8120	22.2600 
1020.583	0.0850	0.0430	0.6890	10.5634	2.4445	4.5428	22.2500 
1020.594	0.0308	0.0952	0.7729	10.5688	2.9224	3.9441	22.2300 
1020.613	0.0161	0.1191	0.8281	10.6018	3.4222	3.2245	22.2400 
1020.631	0.0356	0.1719	0.8789	10.6128	3.8068	2.5763	22.2300 
1020.652	0.0601	0.1636	0.8887	10.6348	4.0594	2.1094	22.2200 
1020.760	0.0640	0.0947	0.9565	10.5743	4.2627	1.8457	22.2400 
1020.780	0.0537	0.0977	0.9448	10.4755	4.4550	1.5491	22.2300 
1020.780	0.0625	0.2305	0.9746	10.4590	4.6967	1.1096	22.2300 
1020.780	0.0645	0.2607	0.9834	10.5194	4.8999	0.7635	22.2100 
1020.780	0.0464	0.2197	0.9824	10.6128	5.0317	0.6152	22.2100 
1020.780	0.0273	0.2588	1.0078	10.7227	5.2020	0.4669	22.2200 
1020.797	-0.0068	0.2661	1.0396	10.8655	5.3558	0.4010	22.2200 
1020.810	-0.0112	0.2529	1.0596	10.9918	5.4602	0.4559	22.2000 
1020.834	0.0186	0.3242	1.0508	11.1072	5.5701	0.4944	22.2100 
1020.851	0.1299	0.4321	1.0088	11.2445	5.6360	0.5933	22.2000 
1020.872	0.1763	0.3418	0.9795	11.3214	5.6140	0.9119	22.2100 
1020.977	0.0166	0.1016	0.9590	11.3544	5.6964	1.1426	22.2000 
1020.991	-0.1602	0.1465	1.1128	11.4862	6.1743	0.8240	22.1800 
1020.991	-0.2871	0.3623	1.4663	11.6949	6.7181	0.4779	22.1900 
1020.991	-0.1782	0.4819	1.2949	11.9257	6.7181	0.5603	22.1900 
1020.991	-0.1304	0.0415	0.9224	12.0575	6.4050	1.1151	22.1900 
1020.991	-0.1743	0.0283	0.8770	12.0081	6.6193	0.9174	22.1800 
1021.009	-0.2720	0.2104	1.0776	12.0135	7.1631	0.4559	22.1800 
1021.030	-0.3477	-0.0200	1.1313	11.8707	7.4268	0.3955	22.1700 
1021.048	-0.2695	0.2407	1.2290	11.6345	7.6740	0.0934	22.1800 
1021.070	-0.1763	0.3989	1.2549	11.5576	7.6575	0.1428	22.1800 
1021.093	-0.0820	0.1528	0.9834	11.4917	7.1960	0.9009	22.1700 
1021.181	-0.0420	0.2065	0.9458	11.3269	6.9104	1.5271	22.1700 
1021.194	-0.0576	0.1670	0.8184	11.1951	6.6962	2.0325	22.1700 
1021.194	-0.0918	0.0850	0.7246	10.9973	6.5094	2.3456	22.1600 
1021.194	-0.1245	0.2163	0.7437	10.8600	6.4819	2.2412	22.1600 
1021.194	-0.1284	0.2627	0.7754	10.8051	6.3940	2.2467	22.1500 
1021.208	-0.0986	0.1567	0.7852	10.6512	6.1414	2.5708	22.1300 
1021.228	-0.0576	0.1982	0.8428	10.4370	5.9271	2.8510	22.1600 
1021.246	-0.0210	0.2124	0.8799	10.2667	5.7513	3.0487	22.1500 
1021.266	-0.0435	0.1616	0.8682	10.1733	5.6085	3.1696	22.1300 
1021.288	-0.0957	0.2480	0.9063	10.1843	5.6140	2.9553	22.1500 
1021.377	-0.1284	0.2974	0.9448	10.2612	5.6360	2.6752	22.1300 
1021.402	-0.1289	0.3140	0.9780	10.3491	5.5646	2.5269	22.1300 
1021.402	-0.0991	0.3374	1.0005	10.4425	5.3833	2.4939	22.1400 
1021.402	-0.0459	0.3594	1.0142	10.5414	5.1086	2.4939	22.1200 
1021.402	-0.0425	0.3379	1.0337	10.6512	4.8285	2.4664	22.1200 
1021.428	-0.0815	0.3325	1.0698	10.7886	4.6088	2.3895	22.1200 
1021.428	-0.0879	0.3970	1.0674	10.9698	4.4220	2.2906	22.1100 
1021.448	-0.0513	0.3428	1.1602	11.1346	4.1638	2.4060	22.1100 
1021.467	0.0322	0.3350	1.2334	11.2225	3.8507	2.6587	22.1100 
1021.488	0.1299	0.2778	1.1934	11.3434	3.4717	2.9773	22.1200 
1021.618	0.1514	0.1724	1.1626	11.4313	3.1366	3.3563	22.1000 
1021.644	0.1689	0.0537	1.1909	11.4203	2.9828	3.7299	22.1100 
1021.645	0.1616	-0.0137	1.1470	11.3489	2.8674	4.0540	22.1000 
1021.645	0.1294	-0.0400	1.2158	11.1401	2.9498	4.0155	22.1000 
1021.645	0.0234	0.0142	1.2969	10.9314	3.2190	3.5266	22.0900 
1021.645	-0.1021	0.1333	1.2705	10.8875	3.6090	2.7246	22.0900 
1021.645	-0.0996	0.2290	1.1553	10.9589	3.9551	1.9611	22.0600 
1021.665	0.0000	0.2163	0.8462	11.0962	4.1309	1.5271	22.0800 
1021.680	0.0410	0.1040	0.7397	11.1731	4.2902	1.4282	22.0700 
1021.760	0.0391	0.0771	0.7222	11.1786	4.6088	1.2360	22.0700 
1021.777	0.0327	0.1699	0.7642	11.2280	5.0977	0.6976	22.0600 
1021.778	0.0254	0.1709	0.7695	11.2939	5.4932	0.1373	22.0400 
1021.778	0.0239	0.1641	0.8125	11.3159	5.8063	-0.3351	22.0600 
1021.778	0.0137	0.1426	0.8755	11.2665	6.1084	-0.7361	22.0400 
1021.802	0.0039	0.1025	0.9326	11.1292	6.3666	-1.0437	22.0500 
1021.823	-0.0098	0.1245	0.9839	10.9753	6.6193	-1.4063	22.0400 
1021.845	0.0029	0.2344	1.0020	10.9149	6.8170	-1.8127	22.0400 
1021.845	0.0146	0.2778	1.0220	10.9424	6.9434	-2.0764	22.0400 
1021.865	0.0112	0.2207	1.0186	10.9863	6.9928	-2.1149	22.0300 
1021.971	-0.0054	0.2070	1.0029	11.0358	7.0642	-2.1368	22.0300 
1021.995	-0.0444	0.2852	1.0420	11.1401	7.2180	-2.2083	22.0200 
1021.995	-0.0483	0.3154	1.0635	11.2830	7.3279	-2.1588	22.0300 
1021.995	0.0410	0.3921	1.0103	11.4368	7.3334	-1.9556	22.0000 
1021.995	0.1138	0.4106	0.9883	11.5631	7.2839	-1.6040	22.0100 
1021.995	0.1138	0.2524	0.9570	11.6400	7.2125	-1.2140	22.0100 
1022.012	-0.0103	0.1606	0.9771	11.7059	7.3279	-1.1206	22.0000 
1022.026	-0.2002	0.2534	1.2114	11.8982	7.6959	-1.3293	22.0100 
1022.044	-0.2305	0.3335	1.3047	12.1509	7.9541	-1.3733	21.9900 
1022.066	-0.1597	0.2573	1.1509	12.3761	7.8168	-0.9833	21.9900 
1022.084	-0.1748	0.0430	1.0254	12.4200	7.6685	-0.5878	21.9900 
1022.112	-0.2510	0.1992	1.0107	12.4036	8.0035	-0.9283	21.9900 
1022.131	-0.2813	0.2397	1.0239	12.4200	8.3990	-1.2799	21.9700 
1022.247	-0.3530	-0.0039	1.1455	12.2937	8.6462	-1.3898	21.9800 
1022.271	-0.2954	0.2085	1.2251	12.1069	8.8824	-1.6644	21.9600 
1022.271	-0.1880	0.2622	1.1724	12.0245	8.7616	-1.5106	21.9700 
1022.271	-0.1450	0.1343	1.0488	11.9147	8.4265	-1.0657	21.9800 
1022.271	-0.1108	0.2500	0.9512	11.8488	8.2288	-0.7635	21.9500 
1022.271	-0.0962	0.2529	0.8403	11.8378	8.0145	-0.3680	21.9500 
1022.271	-0.0698	0.1572	0.7373	11.7499	7.7509	0.1208	21.9500 
1022.286	-0.0601	0.1821	0.7051	11.6730	7.5311	0.4504	21.9400 
1022.394	-0.0757	0.2358	0.7261	11.6345	7.3828	0.6152	21.9300 
1022.409	-0.0928	0.2305	0.7769	11.5576	7.2510	0.7251	21.9300 
1022.409	-0.0913	0.2012	0.7920	11.4697	7.0807	0.8185	21.9100 
1022.409	-0.1055	0.1812	0.8628	11.3544	6.9543	0.8405	21.9300 
1022.409	-0.0938	0.2734	0.8955	11.2610	6.8665	0.6757	21.9200 
1022.410	-0.0977	0.3135	0.9312	11.2445	6.7896	0.5219	21.9200 
1022.440	-0.1255	0.2759	0.9517	11.2500	6.7017	0.4779	21.9100 
1022.462	-0.1450	0.3101	0.9917	11.2500	6.6687	0.3845	21.9200 
1022.477	-0.1377	0.3652	1.0322	11.3214	6.6193	0.2966	21.9100 
1022.500	-0.1182	0.3418	1.0518	11.4258	6.4655	0.3241	21.9100 
1022.501	-0.0869	0.3506	1.0454	11.5411	6.2457	0.3571	21.9100 
1022.610	-0.0889	0.3726	1.0381	11.6895	6.0425	0.3680	21.9100 
1022.626	-0.1099	0.3687	1.0298	11.8872	5.8337	0.4559	21.9000 
1022.626	-0.0771	0.3882	1.0933	12.0795	5.6195	0.5933	21.8800 
1022.626	0.0225	0.3911	1.2124	12.2662	5.3174	0.8734	21.8800 
1022.626	0.0557	0.2983	1.1772	12.4695	4.8724	1.3019	21.8900 
1022.626	0.0864	0.2026	1.1787	12.6123	4.5264	1.6809	21.8900 
1022.643	0.1255	0.2451	1.1465	12.7167	4.3451	1.9336	21.8800 
1022.658	0.1201	0.0518	1.0879	12.7332	4.1089	2.4225	21.8600 
1022.684	0.1182	-0.0654	1.0786	12.4695	3.9331	2.8839	21.8800 
1022.701	0.0132	0.0688	1.2427	12.1674	4.1199	2.5763	21.8700 
1022.722	-0.0869	0.1382	1.3228	12.0245	4.4110	1.9501	21.8600 
1022.821	-0.1484	0.1484	1.2422	11.9696	4.6252	1.4063	21.8700 
1022.856	-0.1074	0.2349	1.0142	11.9751	4.7626	0.9943	21.8600 
1022.857	-0.0361	0.2153	0.8779	12.0190	4.7900	0.9613	21.8700 
1022.857	0.0400	0.0610	0.6763	11.9916	4.7571	1.1865	21.8700 
1022.857	0.0459	0.0806	0.6895	11.9202	4.9384	1.2085	21.8600 
1022.857	0.0020	0.2080	0.7593	11.9147	5.2515	0.8954	21.8500 
1022.883	-0.0073	0.1851	0.8027	11.8378	5.4987	0.6976	21.8500 
1022.884	-0.0024	0.0889	0.8848	11.6125	5.7019	0.6592	21.8400 
1022.899	-0.0083	0.1338	0.9526	11.3489	5.9601	0.5438	21.8400 
1022.921	0.0103	0.1851	1.0215	11.1292	6.1523	0.4669	21.8400 
1023.029	0.0234	0.1953	1.0186	10.9644	6.2292	0.5383	21.8200 
1023.043	0.0391	0.2461	0.9976	10.8875	6.2512	0.6866	21.8300 
1023.043	0.0410	0.2617	0.9790	10.8984	6.2347	0.9009	21.8200 
1023.043	0.0190	0.2329	0.9590	10.9589	6.2183	1.2030	21.8200 
1023.043	-0.0015	0.2500	1.0010	11.0303	6.2622	1.4941	21.8200 
1023.043	-0.0098	0.2935	1.0244	11.1401	6.2897	1.8237	21.8100 
1023.060	0.0220	0.3452	1.0601	11.2610	6.2952	2.1918	21.8000 
1023.077	0.1445	0.4297	0.9966	11.3708	6.2128	2.6093	21.8000 
1023.098	0.1997	0.3784	0.9785	11.4587	6.1029	3.0762	21.8000 
1023.120	0.0674	0.1631	0.9580	11.5027	6.1029	3.4332	21.7900 
1023.135	-0.0557	0.2227	1.0415	11.6345	6.3721	3.3893	21.7700 
1023.155	-0.2173	0.3135	1.3599	11.8817	6.7456	3.3893	21.7600 
1023.264	-0.1260	0.3877	1.2168	12.0740	6.7511	3.6639	21.7800 
1023.275	-0.0981	0.1401	1.0103	12.2498	6.4819	4.2242	21.7800 
1023.275	-0.2100	-0.0908	1.0386	12.2333	6.5094	4.3945	21.7800 
1023.275	-0.3687	0.1372	1.1670	12.2388	7.0313	3.6145	21.7900 
1023.275	-0.4053	0.2671	1.2241	12.3322	7.5970	2.9279	21.7800 
1023.290	-0.3691	0.1665	1.2720	12.3761	7.8387	2.8510	21.7600 
1023.317	-0.2056	0.3018	1.2471	12.3322	7.8168	3.0542	21.7600 
1023.399	-0.0400	0.2651	1.0156	12.3102	7.4982	3.6310	21.7700 
1023.408	-0.0010	0.2207	0.8921	12.2552	7.1301	4.3286	21.7600 
1023.408	-0.0078	0.2075	0.7358	12.1729	6.8500	4.8395	21.7700 
1023.408	-0.0488	0.1606	0.6660	12.0300	6.6357	5.1086	21.7600 
1023.408	-0.1250	0.1514	0.7515	11.8268	6.5588	5.0427	21.7300 
1023.427	-0.1284	0.2046	0.7461	11.6345	6.4929	4.7955	21.7400 
1023.457	-0.1069	0.2144	0.7896	11.4807	6.3666	4.6417	21.7500 
1023.458	-0.0752	0.2007	0.8047	11.3214	6.1578	4.6252	21.7300 
1023.473	-0.0596	0.1763	0.8789	11.1072	6.0040	4.5758	21.7200 
1023.495	-0.0674	0.2295	0.9180	10.9259	5.9436	4.2847	21.7200 
1023.514	-0.0811	0.3320	0.9355	10.8765	5.9601	3.8232	21.7200 
1023.537	-0.0825	0.3174	0.9077	10.8600	5.9381	3.4662	21.7200 
1023.661	-0.1304	0.2466	0.9429	10.7831	5.9326	3.2080	21.7200 
1023.693	-0.1528	0.3057	0.9888	10.7336	5.9930	2.8729	21.7200 
1023.694	-0.1270	0.3506	1.0298	10.7666	5.9436	2.6477	21.7100 
1023.694	-0.0967	0.3237	1.0308	10.7886	5.7239	2.5928	21.7000 
1023.694	-0.0645	0.3755	1.0288	10.8105	5.4602	2.5323	21.7000 
1023.694	-0.0557	0.3496	1.0410	10.8435	5.1581	2.5763	21.7000 
1023.694	-0.0742	0.3057	0.9985	10.8490	4.8560	2.6257	21.6900 
1023.694	-0.0142	0.4351	1.1035	10.8710	4.6417	2.5543	21.7100 
1023.712	0.0479	0.4302	1.1968	10.8820	4.2737	2.6917	21.6900 
1023.822	0.1050	0.2642	1.2080	10.8490	3.7354	3.0542	21.6800 
1023.852	0.0679	0.1104	1.2739	10.7336	3.3508	3.3673	21.6800 
1023.853	0.0991	0.1753	1.2373	10.6732	3.1586	3.4937	21.6800 
1023.853	0.1304	0.0757	1.1450	10.5359	2.8894	3.9166	21.6500 
1023.853	0.1221	-0.1660	1.0884	10.1514	2.6752	4.4055	21.6700 
1023.853	0.0610	-0.0986	1.1797	9.7614	2.8784	4.1144	21.6700 
1023.854	-0.0801	0.1030	1.3218	9.6240	3.3014	3.2574	21.6700 
1023.873	-0.1128	0.1426	1.2358	9.6075	3.5925	2.5159	21.6700 
1023.893	-0.0225	0.1646	0.9966	9.6295	3.6694	2.1204	21.6700 
1023.912	0.0181	0.0483	0.8359	9.6240	3.6804	2.0325	21.6500 
1023.933	0.0522	0.0674	0.7212	9.6240	3.8452	1.8237	21.6400 
1023.950	0.0664	0.1821	0.7715	9.6899	4.1803	1.3953	21.6200 
1024.042	0.0703	0.1191	0.7881	9.7229	4.4495	1.0986	21.6300 
1024.059	0.0605	0.0703	0.8320	9.6515	4.7131	0.7800	21.6200 
1024.061	0.0410	0.1528	0.8887	9.6130	5.0208	0.2087	21.6200 
1024.061	0.0190	0.1558	0.9292	9.5911	5.2954	-0.2637	21.6000 
1024.061	0.0073	0.0684	0.9448	9.4922	5.4877	-0.5164	21.6300 
1024.080	0.0137	0.1138	0.9551	9.4098	5.6744	-0.8240	21.6000 
1024.110	0.0273	0.2681	0.9771	9.4263	5.8722	-1.1920	21.5900 
1024.130	0.0352	0.2749	1.0195	9.4922	5.9766	-1.3293	21.5800 
1024.145	0.0474	0.2241	0.9766	9.5636	5.9766	-1.2634	21.6000 
1024.252	0.0269	0.2393	0.9834	9.6295	6.0260	-1.1700	21.5800 
1024.252	-0.0103	0.2563	1.0142	9.7064	6.1139	-1.0272	21.5900 
1024.259	-0.0088	0.2476	1.0269	9.7723	6.1798	-0.7581	21.5800 
1024.259	0.0806	0.3589	1.0107	9.8492	6.2402	-0.4395	21.5700 
1024.259	0.1563	0.3848	0.9976	9.9646	6.2347	0.0165	21.5600 
1024.259	0.0972	0.1313	0.9512	10.0415	6.1633	0.6537	21.5700 
1024.280	-0.0371	0.0977	0.9771	10.1129	6.3391	0.9174	21.5700 
1024.294	-0.2642	0.2021	1.3115	10.3601	6.8445	0.8679	21.5500 
1024.311	-0.2480	0.3032	1.3638	10.6128	7.2345	1.0217	21.5300 
1024.330	-0.1587	0.2261	1.1255	10.8380	7.2345	1.4996	21.5200 
1024.351	-0.1875	0.0303	0.9683	10.9424	7.2510	1.9611	21.5300 
1024.452	-0.2729	0.1426	0.9980	10.9534	7.7124	1.6754	21.5100 
1024.461	-0.3506	0.1206	1.1289	10.9094	8.3002	1.3788	21.5000 
1024.462	-0.3740	0.1011	1.3486	10.7117	8.6462	1.3678	21.5000 
1024.462	-0.2334	0.3086	1.3755	10.4810	8.7067	1.4777	21.5200 
1024.462	-0.1035	0.2144	1.0869	10.3766	8.2892	2.1368	21.4900 
1024.479	-0.0737	0.1792	0.9375	10.2832	7.8113	2.9718	21.5000 
1024.510	-0.0581	0.1821	0.8145	10.1733	7.4542	3.6749	21.4600 
1024.510	-0.0845	0.0767	0.7334	9.9536	7.1082	4.2737	21.4600 
1024.533	-0.1001	0.1411	0.7339	9.6844	6.8829	4.4110	21.4800 
1024.552	-0.0811	0.2007	0.7432	9.5416	6.6687	4.3781	21.4700 
1024.567	-0.0737	0.1919	0.7349	9.4043	6.3995	4.4769	21.4700 
1024.664	-0.0601	0.1484	0.7778	9.2120	6.1359	4.6582	21.4700 
1024.675	-0.0601	0.1504	0.8560	8.9868	5.9546	4.7681	21.4700 
1024.675	-0.0625	0.2090	0.8960	8.8165	5.8118	4.7626	21.4500 
1024.675	-0.0669	0.2114	0.9170	8.7122	5.6689	4.7736	21.4500 
1024.675	-0.0762	0.1992	0.9600	8.6078	5.5426	4.6857	21.4500 
1024.706	-0.0820	0.2759	0.9805	8.5803	5.4822	4.3890	21.4500 
1024.720	-0.0884	0.3623	1.0264	8.6188	5.4382	4.1693	21.4400 
1024.736	-0.0762	0.3237	1.0137	8.6682	5.3009	4.1748	21.4400 
1024.758	-0.0449	0.2979	1.0269	8.7067	5.1086	4.2133	21.4300 
1024.768	-0.0317	0.3345	1.0649	8.7836	4.9054	4.1693	21.4400 
1024.871	-0.0361	0.3091	1.0708	8.8660	4.6472	4.1583	21.4400 
1024.893	-0.0469	0.3130	1.0400	8.9484	4.3945	4.1034	21.4300 
1024.893	0.0054	0.4219	1.0483	9.0582	4.1583	4.0320	21.4100 
1024.893	0.0664	0.3384	1.1226	9.1351	3.8068	4.1748	21.4100 
1024.893	0.1494	0.2339	1.1831	9.1846	3.3728	4.3231	21.4000 
1024.893	0.1284	0.1387	1.2007	9.2999	3.0103	4.2957	21.4100 
1024.909	0.1738	0.1104	1.2095	9.3658	2.8619	4.1254	21.4100 
1024.928	0.1616	0.0537	1.3184	9.3384	2.8400	4.1803	21.4000 
1024.951	0.0605	-0.2866	1.1909	9.1187	2.6422	4.4330	21.3900 
1024.964	-0.0361	-0.1943	1.3018	8.9264	2.7850	3.8947	21.3900 
1024.984	-0.1699	0.1733	1.3530	8.9703	3.2794	2.6367	21.3700 
1025.083	-0.1245	0.2080	1.2383	9.1406	3.5101	1.8292	21.3800 
1025.092	0.0220	0.1279	0.8818	9.3494	3.4827	1.4777	21.3800 
1025.092	0.0815	0.1636	0.7061	9.5966	3.5596	1.1591	21.3900 
1025.092	0.0586	0.1016	0.6875	9.8163	3.8287	0.8569	21.3700 
1025.092	0.0322	0.0464	0.7354	9.8383	4.2462	0.4999	21.3700 
1025.113	-0.0005	0.0894	0.8535	9.8053	4.7461	-0.0604	21.3600 
1025.125	-0.0010	0.1064	0.8760	9.8053	5.1581	-0.6702	21.3500 
1025.148	0.0386	0.1860	0.8418	9.8328	5.4382	-1.1536	21.3500 
1025.169	0.0264	0.1870	0.9600	9.8547	5.6854	-1.4172	21.3500 
1025.297	0.0327	0.0586	0.9531	9.7723	5.7788	-1.4777	21.3400 
1025.312	0.0259	0.1289	0.9336	9.6899	5.9271	-1.7743	21.3400 
1025.312	0.0249	0.3247	0.9814	9.7614	6.1469	-2.2467	21.3300 
1025.312	0.0083	0.2642	0.9790	9.8877	6.2292	-2.3950	21.3200 
1025.312	-0.0117	0.2314	0.9502	9.9701	6.2732	-2.3950	21.3200 
1025.312	-0.0313	0.2642	0.9814	10.0525	6.3776	-2.3785	21.3300 
1025.313	-0.0571	0.1919	1.0249	10.1074	6.4490	-2.1149	21.3200 
1025.343	-0.0225	0.2490	1.0176	10.1239	6.4929	-1.8073	21.3200 
1025.449	0.0942	0.3853	1.0000	10.2173	6.5204	-1.4392	21.3300 
1025.482	0.1221	0.2163	0.9771	10.3217	6.4105	-0.6921	21.3200 
1025.482	-0.0415	0.0205	0.9946	10.3931	6.4050	-0.0220	21.3200 
1025.482	-0.2368	0.1221	1.2471	10.6018	6.8060	0.0385	21.3100 
1025.482	-0.2437	0.4585	1.3726	10.9039	7.2345	0.0494	21.3200 
1025.482	-0.1748	0.3472	1.2544	11.2280	7.2125	0.5933	21.3100 
1025.482	-0.1841	0.0366	0.9463	11.3928	7.0642	1.2415	21.3100 
1025.495	-0.2427	0.1934	0.9829	11.4532	7.4268	1.1536	21.3000 
1025.512	-0.3228	0.2144	1.1069	11.5082	7.9431	1.0272	21.3000 
1025.528	-0.4199	0.0073	1.3232	11.3708	8.2617	1.1700	21.3100 
1025.545	-0.2861	0.2485	1.2793	11.1896	8.3386	1.2360	21.3100 
1025.560	-0.1113	0.3271	1.0757	11.1676	8.0255	1.7963	21.3000 
1025.652	-0.0591	0.2148	0.8960	11.1456	7.5037	2.8125	21.3100 
1025.658	-0.0508	0.1553	0.8159	11.0193	7.1521	3.7683	21.3000 
1025.658	-0.0586	0.1079	0.7168	10.8600	6.8445	4.4659	21.3000 
1025.659	-0.0879	0.1563	0.7124	10.6897	6.6907	4.7296	21.2900 
1025.678	-0.0884	0.2437	0.7324	10.6183	6.5973	4.7076	21.2900 
1025.703	-0.0840	0.2554	0.7705	10.5469	6.4709	4.7571	21.2900 
1025.722	-0.0820	0.2378	0.8125	10.4150	6.3062	4.8615	21.2700 
1025.722	-0.0767	0.2495	0.8623	10.2722	6.1249	4.9658	21.2700 
1025.742	-0.0610	0.2158	0.9009	10.0964	5.9326	5.0867	21.2800 
1025.763	-0.0381	0.2539	0.9185	9.9261	5.7733	5.0153	21.2800 
1025.859	-0.0366	0.3232	0.9248	9.8328	5.6689	4.7296	21.2700 
1025.874	-0.0674	0.3472	0.9600	9.7833	5.6085	4.4000	21.2700 
1025.874	-0.0962	0.3135	0.9702	9.7339	5.5371	4.1089	21.2600 
1025.874	-0.1367	0.2891	1.0366	9.6844	5.4877	3.7848	21.2900 
1025.874	-0.1318	0.3145	1.0664	9.6625	5.3888	3.4222	21.2800 
1025.898	-0.0840	0.3521	1.0786	9.6790	5.1855	3.1641	21.2600 
1025.913	-0.0742	0.3125	1.0391	9.7284	4.8944	3.0542	21.2600 
1025.929	-0.0513	0.3652	1.0688	9.7833	4.6582	2.9388	21.2700 
1025.944	0.0229	0.3750	1.1919	9.7998	4.4220	2.9169	21.2600 
1025.959	0.1152	0.2695	1.2813	9.8108	4.0594	3.1091	21.2700 
1026.050	0.1074	0.1563	1.3242	9.8218	3.7134	3.3014	21.2400 
1026.058	0.1177	0.1118	1.3149	9.8163	3.5486	3.3289	21.2700 
1026.058	0.1543	0.1274	1.1919	9.8108	3.4607	3.3618	21.2600 
1026.058	0.1187	-0.1089	1.0679	9.7064	3.3398	3.5541	21.2500 
1026.058	0.0630	-0.1890	1.0493	9.4373	3.3893	3.5706	21.2400 
1026.077	-0.1060	0.0088	1.2358	9.2395	3.9001	2.6422	21.2500 
1026.098	-0.1362	0.1821	1.2915	9.2670	4.3616	1.5271	21.2700 
1026.119	-0.0420	0.1938	0.9976	9.3988	4.5099	0.8789	21.2600 
1026.138	-0.0054	0.0610	0.8950	9.4867	4.5209	0.6976	21.2400 
1026.158	0.0376	0.0415	0.7534	9.5471	4.6088	0.5054	21.2300 
1026.259	0.0405	0.1206	0.7300	9.6350	4.8889	0.0879	21.2400 
1026.275	0.0186	0.1177	0.7974	9.7174	5.2020	-0.3516	21.2300 
1026.275	0.0371	0.0923	0.8032	9.7559	5.4163	-0.7800	21.2300 
1026.275	0.0391	0.1553	0.8701	9.7833	5.6470	-1.2634	21.2300 
1026.275	0.0176	0.1187	0.8965	9.8218	5.8173	-1.6205	21.2200 
1026.294	0.0093	0.0889	0.9214	9.7504	5.9271	-1.8896	21.2000 
1026.315	0.0166	0.1689	0.9585	9.6515	6.1029	-2.3016	21.2100 
1026.337	0.0313	0.2593	1.0054	9.6625	6.2512	-2.6367	21.2100 
1026.359	0.0317	0.2012	1.0039	9.6954	6.3171	-2.6917	21.2100 
1026.359	0.0098	0.2305	0.9951	9.7559	6.3501	-2.6697	21.2000 
1026.456	-0.0044	0.3018	1.0176	9.8877	6.4105	-2.6422	21.2000 
1026.475	-0.0249	0.2451	1.0298	10.0085	6.4050	-2.2906	21.2000 
1026.477	-0.0239	0.2134	1.0366	10.0635	6.4105	-1.8622	21.1900 
1026.477	0.0288	0.3525	1.0410	10.1788	6.4929	-1.5326	21.1800 
1026.477	0.1338	0.3262	0.9937	10.3436	6.4490	-0.9064	21.1900 
1026.498	0.0972	0.1475	0.9575	10.4315	6.3776	-0.1703	21.1800 
1026.517	-0.1387	0.1367	1.1353	10.5908	6.6797	0.0714	21.1800 
1026.518	-0.2725	0.2705	1.4170	10.8105	7.2235	0.1318	21.1800 
1026.542	-0.1606	0.4053	1.1719	11.0138	7.2565	0.5383	21.1700 
1026.561	-0.1572	0.0723	0.9761	11.1346	7.0258	1.3843	21.1800 
1026.671	-0.2671	-0.0366	0.9277	11.1401	7.2784	1.3019	21.1700 
1026.696	-0.3271	0.1792	1.0776	11.2006	7.8113	0.8679	21.1600 
1026.696	-0.3955	0.0903	1.3228	11.2170	8.0365	1.0217	21.1600 
1026.696	-0.2759	0.1685	1.2935	11.1182	7.9047	1.4557	21.1700 
1026.696	-0.0835	0.2944	1.1353	11.1182	7.5037	2.1368	21.1500 
1026.696	-0.0356	0.2422	0.9927	11.1896	6.9928	3.0707	21.1400 
1026.715	-0.0532	0.1880	0.8984	11.1951	6.6357	3.9990	21.1500 
1026.715	-0.0601	0.1772	0.8286	11.1456	6.3666	4.7241	21.1400 
1026.736	-0.0640	0.1890	0.7686	11.0742	6.1633	5.2405	21.1500 
1026.758	-0.0532	0.2085	0.7583	11.0028	5.9930	5.6140	21.1400 
1026.780	-0.0425	0.2500	0.8154	10.9094	5.8722	5.8502	21.1400 
1026.874	-0.0225	0.2837	0.8027	10.8051	5.7458	5.9601	21.1400 
1026.892	-0.0254	0.3003	0.8228	10.6952	5.6525	6.0205	21.1100 
1026.892	-0.0479	0.2163	0.8413	10.5469	5.5701	6.1194	21.1300 
1026.892	-0.0894	0.2041	0.8647	10.3766	5.5701	5.9766	21.1400 
1026.892	-0.0942	0.2954	0.8843	10.2887	5.6305	5.6195	21.1200 
1026.909	-0.0742	0.3311	0.9312	10.2557	5.6305	5.3558	21.1100 
1026.925	-0.0596	0.3267	0.9395	10.2063	5.5261	5.2460	21.1100 
1026.943	-0.0220	0.3643	0.9580	10.1514	5.3668	5.1086	21.1100 
1026.961	-0.0298	0.3550	1.0278	10.0745	5.2130	4.9329	21.1100 
1026.975	-0.0415	0.3257	1.0337	9.9701	5.0537	4.6967	21.0900 
1026.992	-0.0723	0.3042	1.0337	9.9042	4.9384	4.4275	21.1000 
1027.082	-0.1128	0.3359	1.0562	9.8877	4.8779	4.1803	21.1300 
1027.089	-0.0664	0.3359	1.1426	9.8602	4.7791	4.0979	21.1100 
1027.089	0.0684	0.3247	1.2471	9.8163	4.5538	4.2352	21.1000 
1027.089	0.1182	0.2290	1.2583	9.8108	4.1858	4.5868	21.0900 
1027.106	0.1626	0.1021	1.2329	9.7504	3.8672	4.9768	21.1000 
1027.125	0.1802	0.0854	1.2388	9.6405	3.7079	5.2844	21.1000 
1027.145	0.1094	-0.1001	1.1821	9.4263	3.6420	5.5920	21.1000 
1027.158	0.0313	-0.2046	1.1987	9.0967	3.6969	5.6360	21.0900 
1027.176	-0.1172	-0.0293	1.3389	8.8605	4.2188	4.6747	21.0900 
1027.191	-0.1563	0.1685	1.3154	8.8879	4.7900	3.3948	21.0900 
1027.279	-0.0879	0.1836	1.0605	9.0747	4.9658	2.6752	21.0900 
1027.288	-0.0356	0.0278	0.8745	9.1791	4.9274	2.4939	21.0800 
1027.288	0.0122	0.0410	0.7856	9.1956	4.9878	2.2797	21.0600 
1027.288	0.0381	0.1548	0.8599	9.3164	5.2295	1.8347	21.0700 
1027.304	0.0464	0.0649	0.8022	9.4812	5.3394	1.5436	21.0800 
1027.331	0.0405	0.0708	0.8008	9.6075	5.4602	1.1865	21.0700 
1027.331	0.0347	0.1484	0.7993	9.7833	5.6580	0.5493	21.0500 
1027.350	0.0308	0.2007	0.8657	9.8987	5.8777	-0.0165	21.0500 
1027.373	0.0190	0.1309	0.9185	9.9042	6.0260	-0.3516	21.0500 
1027.390	0.0049	0.1001	0.9233	9.8657	6.1688	-0.7910	21.0500 
1027.485	0.0005	0.1938	0.9355	9.8987	6.3995	-1.4557	21.0600 
1027.499	0.0059	0.3125	0.9683	10.0085	6.6248	-2.0270	21.0500 
1027.499	0.0088	0.2808	0.9751	10.1129	6.7291	-2.2192	21.0700 
1027.500	-0.0015	0.2090	0.9775	10.1788	6.7841	-2.1918	21.0600 
1027.500	-0.0264	0.2129	1.0156	10.2777	6.8884	-2.1313	21.0400 
1027.513	-0.0469	0.2188	1.0249	10.4205	6.9763	-1.9666	21.0500 
1027.530	0.0059	0.3169	0.9858	10.5853	7.0532	-1.7523	21.0500 
1027.551	0.1270	0.3975	0.9644	10.7776	7.0917	-1.3678	21.0500 
1027.569	0.1011	0.2314	0.9829	10.9204	7.0862	-0.7635	21.0300 
1027.591	-0.1968	-0.0498	1.1411	11.0193	7.3553	-0.5878	21.0400 
1027.667	-0.3535	0.2324	1.3965	11.2115	8.0695	-1.1316	21.0400 
1027.691	-0.3149	0.4907	1.2808	11.5686	8.3990	-1.2250	21.0400 
1027.692	-0.2935	0.0806	1.0313	11.7719	8.2617	-0.5768	21.0500 
1027.692	-0.2466	0.1670	0.9829	11.6949	8.5364	-0.5823	21.0500 
1027.692	-0.2690	0.3042	1.1167	11.6675	8.9154	-0.5603	21.0300 
1027.708	-0.3203	-0.0283	1.2310	11.4697	8.9484	-0.0385	21.0200 
1027.728	-0.2251	0.1343	1.2266	11.1731	8.9264	0.1868	21.0300 
1027.748	-0.1392	0.3052	1.1084	11.0687	8.7122	0.5328	21.0200 
1027.768	-0.1035	0.2061	0.8931	11.0303	8.2782	1.2305	21.0200 
1027.793	-0.0659	0.2466	0.7837	10.9204	7.9541	1.9556	21.0000 
1027.809	-0.0610	0.1650	0.7368	10.7062	7.6080	2.7466	21.0000 
1027.827	-0.0762	0.0723	0.7393	10.3326	7.3004	3.3289	21.0000 
1027.847	-0.1006	0.1606	0.8154	10.0085	7.1521	3.4827	21.0000 
1027.960	-0.0889	0.2051	0.8257	9.7833	6.9928	3.5321	21.0000 
1027.977	-0.0747	0.1885	0.8491	9.5691	6.8390	3.6584	20.9900 
1027.977	-0.0757	0.2095	0.8892	9.3713	6.7236	3.7354	20.9800 
1027.977	-0.1011	0.2241	0.9507	9.2010	6.6797	3.7848	20.9600 
1027.977	-0.1113	0.2290	0.9692	9.0637	6.6138	3.8452	20.9700 
1027.977	-0.1006	0.2402	0.9600	8.9923	6.4984	3.8672	20.9700 
1027.993	-0.0708	0.3140	0.9893	8.9813	6.3666	3.8287	20.9700 
1028.008	-0.0371	0.3633	0.9785	9.0308	6.1798	3.8013	20.9600 
1028.100	-0.0117	0.3296	0.9946	9.0692	5.9546	3.8782	20.9700 
1028.127	-0.0381	0.2598	1.0156	9.0747	5.7349	3.9496	20.9600 
1028.128	-0.0645	0.3369	1.0532	9.1022	5.6195	3.7573	20.9600 
1028.128	-0.0840	0.3423	1.0493	9.1681	5.5096	3.5651	20.9600 
1028.128	-0.0747	0.3032	1.0337	9.2340	5.3174	3.5156	20.9600 
1028.128	-0.0073	0.3618	1.1123	9.2780	5.1251	3.4827	20.9600 
1028.145	0.1055	0.2925	1.1704	9.3329	4.8065	3.6694	20.9700 
1028.167	0.0991	0.1230	1.2036	9.3768	4.4440	3.9880	20.9600 
1028.185	0.0977	0.0723	1.3184	9.3494	4.3341	4.0704	20.9600 
1028.205	0.1196	0.0986	1.2910	9.3439	4.3286	4.0759	20.9600 
1028.227	0.0747	-0.1235	1.1455	9.2450	4.2023	4.3451	20.9600 
1028.313	0.0088	-0.1924	1.1455	8.9923	4.1968	4.3671	20.9600 
1028.344	-0.1050	-0.0664	1.2739	8.7781	4.7076	3.3948	20.9400 
1028.344	-0.1587	0.2075	1.3188	8.8110	5.2075	2.2852	20.9600 
1028.344	-0.0781	0.2456	1.0781	8.9923	5.3503	1.6315	20.9400 
1028.344	0.0171	0.0728	0.8223	9.1241	5.3668	1.4777	20.9500 
1028.363	0.0278	0.0146	0.7266	9.1516	5.4822	1.2689	20.9500 
1028.383	0.0015	0.1011	0.7910	9.1791	5.8447	0.6976	20.9400 
1028.407	-0.0273	0.1006	0.8184	9.2450	6.1798	0.0714	20.9400 
1028.422	-0.0444	0.0718	0.8457	9.2889	6.4105	-0.5109	20.9200 
1028.433	-0.0254	0.1191	0.8667	9.3494	6.5588	-1.0602	20.9300 
1028.555	0.0146	0.1587	0.9219	9.3933	6.6248	-1.4337	20.9300 
1028.555	0.0356	0.1421	0.9380	9.3768	6.5973	-1.6205	20.9200 
1028.576	0.0410	0.1294	0.9683	9.3164	6.5918	-1.8237	20.9300 
1028.576	0.0220	0.1802	0.9810	9.2780	6.6577	-2.1863	20.9200 
1028.576	0.0029	0.2334	1.0020	9.3274	6.7566	-2.5983	20.9300 
1028.576	-0.0029	0.2197	0.9590	9.4153	6.8280	-2.9004	20.9100 
1028.576	-0.0371	0.2241	0.9951	9.5306	6.9324	-3.1091	20.9100 
1028.593	-0.0630	0.2280	1.0186	9.6680	7.0367	-3.2025	20.9200 
1028.624	-0.0493	0.2485	1.0552	9.7998	7.1136	-3.1146	20.9100 
1028.638	0.0264	0.3413	1.0298	9.9756	7.1301	-2.9004	20.8900 
1028.658	0.1357	0.3252	0.9600	10.1898	7.0477	-2.4115	20.8900 
1028.679	0.1167	0.1875	0.9307	10.3601	6.9598	-1.8457	20.8900 
1028.773	-0.1055	0.0996	1.0620	10.5579	7.1576	-1.7194	20.8900 
1028.801	-0.2598	0.2070	1.3071	10.8105	7.6135	-1.9446	20.8800 
1028.801	-0.2329	0.4160	1.2065	11.0632	7.8278	-2.0270	20.8900 
1028.801	-0.2539	0.1270	1.1230	11.2555	7.7344	-1.5710	20.8700 
1028.801	-0.2993	0.0781	1.0010	11.2775	7.8662	-1.5546	20.8700 
1028.802	-0.3247	0.2363	1.0830	11.3324	8.2617	-1.8182	20.8700 
1028.825	-0.3853	0.0024	1.2017	11.3269	8.4595	-1.6260	20.8800 
1028.926	-0.3154	0.0801	1.2739	11.1566	8.5529	-1.4447	20.8700 
1028.941	-0.1201	0.3853	1.2241	11.0742	8.4375	-1.1371	20.8700 
1028.941	-0.0630	0.2412	0.9722	11.0962	7.9321	-0.2911	20.8600 
1028.941	-0.0723	0.1636	0.8516	11.0358	7.5311	0.5493	20.8500 
1028.941	-0.0864	0.1919	0.7939	10.9424	7.2839	1.1316	20.8500 
1028.941	-0.1138	0.1128	0.7539	10.7721	7.0697	1.5820	20.8600 
1028.941	-0.1016	0.1621	0.7607	10.5743	6.9214	1.8182	20.8500 
1028.962	-0.0605	0.2822	0.8057	10.4425	6.7786	1.9830	20.8200 
1028.981	-0.0420	0.2524	0.7949	10.2942	6.5643	2.2687	20.8400 
1029.001	-0.0610	0.1802	0.8550	10.0854	6.3721	2.5269	20.8300 
1029.023	-0.0815	0.1714	0.9009	9.8657	6.2787	2.5818	20.8500 
1029.131	-0.0864	0.2725	0.8887	9.7284	6.2732	2.3401	20.8400 
1029.158	-0.0815	0.3306	0.8833	9.7009	6.2787	2.0929	20.8300 
1029.158	-0.0986	0.2720	0.9248	9.6460	6.2457	1.9995	20.8500 
1029.158	-0.0938	0.3203	0.9482	9.5691	6.2073	1.8677	20.8400 
1029.158	-0.0815	0.3687	0.9966	9.5416	6.1029	1.7468	20.8300 
1029.158	-0.0762	0.3086	1.0229	9.4922	5.8942	1.7468	20.8200 
1029.174	-0.0732	0.2764	1.0430	9.4043	5.6689	1.7029	20.8400 
1029.192	-0.0947	0.3188	1.0664	9.3823	5.4877	1.5271	20.8100 
1029.214	-0.1143	0.3413	1.0566	9.4098	5.3009	1.3843	20.8200 
1029.242	-0.0518	0.3584	1.0459	9.4373	5.0482	1.3733	20.8200 
1029.354	0.0220	0.3486	1.1582	9.4647	4.7241	1.5216	20.8200 
1029.375	0.1426	0.3018	1.2549	9.5197	4.2627	1.7743	20.8200 
1029.375	0.1460	0.1211	1.2471	9.5471	3.7738	2.0709	20.8100 
1029.375	0.1470	0.0640	1.2100	9.4922	3.5706	2.0105	20.8200 
1029.375	0.1377	0.1187	1.2622	9.4482	3.6255	1.8237	20.8000 
1029.376	0.0552	-0.1885	1.1807	9.1846	3.5376	1.9281	20.8100 
1029.376	-0.0259	-0.2539	1.1978	8.7891	3.7024	1.5216	20.8200 
1029.399	-0.1528	0.0747	1.3306	8.6078	4.2242	0.4010	20.8000 
1029.420	-0.1440	0.2114	1.3071	8.6627	4.5374	-0.4889	20.7900 
1029.441	-0.0103	0.1235	0.9346	8.8110	4.4385	-0.7526	20.8000 
1029.442	0.0449	0.0391	0.7925	8.9319	4.3616	-0.8130	20.7900 
1029.462	0.0762	0.0933	0.6704	9.0802	4.4604	-1.0876	20.7800 
1029.555	0.0444	0.0781	0.7295	9.1901	4.7296	-1.4777	20.7800 
1029.577	-0.0215	0.0537	0.8252	9.2450	5.0372	-2.0325	20.7700 
1029.577	-0.0117	0.1064	0.8579	9.3329	5.2899	-2.6752	20.7800 
1029.577	0.0405	0.2134	0.9160	9.4757	5.4218	-3.1531	20.7700 
1029.577	0.0547	0.1006	0.8926	9.5361	5.3778	-3.2794	20.7600 
1029.597	0.0459	0.1162	0.9248	9.4702	5.4382	-3.5486	20.7700 
1029.617	0.0332	0.2310	0.9883	9.4977	5.6250	-4.0265	20.7800 
1029.638	0.0313	0.1978	0.9604	9.5746	5.6964	-4.3176	20.7600 
1029.652	0.0366	0.1973	0.9800	9.6295	5.7568	-4.5154	20.7600 
1029.753	0.0410	0.2969	1.0366	9.7394	5.8557	-4.7186	20.7600 
1029.777	0.0332	0.2891	1.0298	9.9097	5.8997	-4.7186	20.7600 
1029.777	0.0093	0.2334	1.0068	10.0690	5.8942	-4.5374	20.7400 
1029.777	0.0068	0.2886	1.0464	10.2228	5.9656	-4.4000	20.7300 
1029.777	0.0928	0.4209	1.0112	10.3986	6.0150	-4.2242	20.7500 
1029.777	0.1587	0.3657	0.9956	10.5194	5.9821	-3.8123	20.7400 
1029.793	0.0664	0.1128	0.9858	10.5304	5.9821	-3.4058	20.7400 
1029.817	-0.0586	0.1523	1.0000	10.6073	6.2842	-3.5046	20.7300 
1029.836	-0.2070	0.2886	1.1553	10.9204	6.7401	-3.6639	20.7300 
1029.852	-0.2559	0.2109	1.3027	11.2939	7.0148	-3.2574	20.7200 
1029.973	-0.0723	0.2808	1.1299	11.5356	6.9214	-2.5433	20.7200 
1029.991	-0.0972	0.1016	1.0601	11.7059	6.7566	-1.7468	20.7300 
1029.991	-0.2432	0.0684	1.0933	11.7004	6.9928	-1.6974	20.7300 
1029.991	-0.3013	0.2114	1.1011	11.7389	7.5201	-2.2302	20.7300 
1029.991	-0.3936	0.1284	1.3198	11.8048	7.9706	-2.3785	20.7300 
1029.991	-0.2578	0.2407	1.2959	11.7554	8.1189	-2.1753	20.7200 
1029.991	-0.0947	0.1987	1.1147	11.6949	7.8168	-1.5710	20.7400 
1030.013	-0.0581	0.1885	0.9473	11.6620	7.4268	-0.8899	20.7300 
1030.037	-0.0459	0.3149	0.8379	11.7169	7.1576	-0.3076	20.7300 
1030.052	-0.0435	0.1729	0.7324	11.7114	6.7731	0.4504	20.7000 
1030.069	-0.0483	0.0664	0.6929	11.4862	6.3885	1.0767	20.7000 
1030.081	-0.0361	0.2461	0.7329	11.3269	6.1908	1.2085	20.7100 
1030.191	-0.0288	0.2583	0.7310	11.2555	5.9436	1.3513	20.7200 
1030.207	-0.0342	0.1846	0.7427	11.0797	5.7019	1.5216	20.7100 
1030.207	-0.0459	0.2441	0.8291	10.8710	5.6030	1.4722	20.7000 
1030.207	-0.0615	0.2578	0.9390	10.6567	5.5316	1.3898	20.6800 
1030.207	-0.0586	0.1929	0.9336	10.4205	5.3723	1.3239	20.7000 
1030.207	-0.0674	0.2549	0.9487	10.2667	5.3009	1.0437	20.7000 
1030.224	-0.0791	0.3320	0.9741	10.2173	5.3119	0.6866	20.6900 
1030.242	-0.1050	0.3428	1.0073	10.2063	5.2899	0.5219	20.7000 
1030.367	-0.0830	0.3560	0.9922	10.1898	5.1965	0.4834	20.6900 
1030.391	-0.0234	0.3662	1.0210	10.1624	5.0262	0.5383	20.6800 
1030.391	0.0010	0.3433	1.0508	10.1129	4.7900	0.6537	20.6900 
1030.392	-0.0044	0.3481	1.0425	10.0854	4.5538	0.7141	20.6800 
1030.392	-0.0381	0.3604	1.0122	10.1019	4.3561	0.7251	20.7000 
1030.392	-0.0264	0.4102	1.0000	10.1019	4.2133	0.7306	20.6800 
1030.392	0.0249	0.4111	1.0288	10.0635	4.0210	0.7910	20.6900 
1030.413	0.1235	0.3145	1.1299	9.9921	3.7189	0.9833	20.6900 
1030.413	0.1362	0.1680	1.1260	9.9207	3.3344	1.2469	20.6900 
1030.435	0.1616	0.0659	1.2129	9.7833	3.1366	1.3184	20.6600 
1030.454	0.1841	0.0332	1.3838	9.5306	3.1531	1.4612	20.6800 
1030.477	0.1108	-0.2212	1.3989	9.1296	3.1146	1.8402	20.6700 
1030.491	0.0166	-0.2378	1.3325	8.7616	3.1750	1.6754	20.6800 
1030.587	-0.1548	0.0356	1.3057	8.5968	3.6530	0.6976	20.6700 
1030.610	-0.2148	0.1113	1.2886	8.5693	4.1583	-0.1648	20.6800 
1030.611	-0.1025	0.1509	0.9443	8.6572	4.4000	-0.7416	20.6700 
1030.611	-0.0269	0.1196	0.7808	8.8275	4.5209	-1.0547	20.6700 
1030.611	0.0181	0.0693	0.6162	9.0033	4.6637	-1.2689	20.6500 
1030.629	-0.0029	0.0459	0.6787	9.1132	4.9384	-1.5985	20.6600 
1030.644	-0.0332	0.0903	0.8423	9.1681	5.2679	-2.0819	20.6500 
1030.670	-0.0098	0.1245	0.8677	9.2505	5.4602	-2.5378	20.6400 
1030.686	0.0459	0.1802	0.8882	9.3768	5.4987	-2.7850	20.6500 
1030.792	0.0771	0.0933	0.8618	9.4208	5.4053	-2.7136	20.6300 
1030.793	0.0659	0.0391	0.9092	9.3494	5.3833	-2.7136	20.6400 
1030.810	0.0474	0.1494	0.9561	9.3054	5.5701	-3.1366	20.6500 
1030.810	0.0352	0.2339	0.9858	9.3713	5.7898	-3.6584	20.6400 
1030.810	0.0337	0.2510	1.0142	9.4647	5.9601	-4.0155	20.6200 
1030.810	0.0444	0.3140	1.0581	9.5691	6.0919	-4.1364	20.6300 
1030.826	0.0234	0.2505	1.0498	9.6735	6.1469	-3.9935	20.6200 
1030.851	-0.0244	0.2119	1.0308	9.7778	6.2018	-3.7628	20.6200 
1030.871	-0.0313	0.3032	1.0527	9.9097	6.3666	-3.6145	20.6100 
1030.885	0.0391	0.3740	0.9985	10.0745	6.4874	-3.3179	20.6200 
1030.992	0.1133	0.3428	0.9512	10.2173	6.4984	-2.8070	20.6300 
1031.008	0.0576	0.1499	0.9741	10.3052	6.5259	-2.1753	20.6300 
1031.008	-0.1030	0.0366	1.0288	10.4041	6.6797	-1.7413	20.6100 
1031.008	-0.2842	0.2466	1.3721	10.5194	7.1851	-1.7963	20.5900 
1031.008	-0.2305	0.4404	1.2549	10.6952	7.4927	-1.7798	20.6100 
1031.009	-0.2593	0.0933	1.1396	10.8710	7.3444	-0.9943	20.6200 
1031.030	-0.3154	-0.0234	1.0562	10.8325	7.4982	-0.8020	20.6000 
1031.042	-0.3018	0.3003	1.1548	10.8820	7.9706	-1.0986	20.6000 
1031.072	-0.3169	0.0679	1.2651	10.8984	8.0365	-0.5603	20.5900 
1031.085	-0.2476	-0.0044	1.2041	10.7062	7.8662	0.0549	20.6000 
1031.108	-0.1279	0.2837	1.1567	10.6348	7.7234	0.4120	20.5900 
1031.208	-0.0859	0.2598	0.9785	10.6842	7.3389	1.1041	20.5900 
1031.228	-0.0698	0.1558	0.8667	10.6458	6.9708	2.0325	20.5900 
1031.228	-0.0430	0.1733	0.7876	10.5908	6.6577	2.8674	20.5800 
1031.228	-0.0322	0.1338	0.6943	10.5194	6.3611	3.6145	20.5700 
1031.228	-0.0361	0.1167	0.7192	10.4095	6.1359	4.1364	20.5700 
1031.228	-0.0342	0.2095	0.7397	10.3381	5.9875	4.2682	20.5600 
1031.246	-0.0483	0.3047	0.7861	10.3162	5.8997	4.2023	20.5600 
1031.262	-0.0552	0.2480	0.8701	10.2338	5.7678	4.3616	20.5800 
1031.288	-0.0488	0.1670	0.8984	10.0635	5.5811	4.6088	20.5700 
1031.305	-0.0522	0.2451	0.9072	9.9701	5.5042	4.5538	20.5700 
1031.410	-0.0488	0.3232	0.9238	10.0031	5.4822	4.3781	20.5500 
1031.423	-0.0718	0.3340	0.9790	10.0305	5.4437	4.2627	20.5400 
1031.423	-0.0845	0.3652	1.0093	10.0305	5.4053	4.1473	20.5600 
1031.423	-0.0752	0.3491	1.0215	10.0195	5.3064	4.1089	20.5500 
1031.423	-0.0640	0.2944	1.0591	9.9701	5.1526	4.1583	20.5600 
1031.423	-0.0620	0.2856	1.0508	9.9536	4.9768	4.1693	20.5600 
1031.447	-0.0796	0.3149	1.0415	9.9976	4.8175	4.1418	20.5600 
1031.447	-0.0459	0.3706	1.0986	10.0635	4.6637	4.2078	20.5400 
1031.468	0.0288	0.3574	1.1885	10.0800	4.4330	4.4330	20.5500 
1031.488	0.1460	0.3428	1.2471	10.1019	4.0759	4.7516	20.5500 
1031.509	0.1187	0.1548	1.2407	10.1459	3.6694	5.1581	20.5600 
1031.619	0.1196	0.1230	1.2002	10.1678	3.4717	5.3229	20.5400 
1031.647	0.1123	0.1328	1.2290	10.1898	3.5211	5.4327	20.5500 
1031.647	0.0820	-0.1230	1.1470	10.0140	3.4882	5.7678	20.5300 
1031.647	0.0645	-0.1343	1.1455	9.7064	3.5431	5.7623	20.5400 
1031.647	-0.0454	0.0718	1.2837	9.5142	3.8947	5.1196	20.5400 
1031.647	-0.0757	0.1050	1.2139	9.4977	4.1528	4.4495	20.5500 
1031.648	-0.0571	0.1235	0.9902	9.5966	4.3011	3.9716	20.5300 
1031.666	-0.0156	0.0942	0.8462	9.7009	4.4165	3.6694	20.5400 
1031.686	0.0283	0.0864	0.7344	9.7833	4.5758	3.4442	20.5300 
1031.707	0.0376	0.0903	0.7700	9.8383	4.8175	3.2135	20.5300 
1031.724	0.0298	0.0874	0.7930	9.8383	5.0537	2.9114	20.5300 
1031.834	0.0371	0.1187	0.8428	9.8163	5.2899	2.5049	20.5100 
1031.863	0.0601	0.1826	0.8628	9.8053	5.4822	2.0874	20.5200 
1031.863	0.0640	0.1396	0.9165	9.7778	5.6305	1.8018	20.5300 
1031.863	0.0537	0.0723	0.9023	9.6680	5.7349	1.5710	20.5100 
1031.863	0.0254	0.1450	0.9360	9.5746	5.9766	1.1261	20.5200 
1031.864	-0.0156	0.2339	1.0044	9.5911	6.2677	0.6372	20.5100 
1031.881	-0.0020	0.2451	0.9937	9.6460	6.4325	0.3571	20.5000 
1031.991	0.0132	0.2578	1.0112	9.7284	6.5094	0.3406	20.5100 
1032.024	0.0044	0.2251	1.0273	9.8273	6.5424	0.5438	20.5200 
1032.024	-0.0229	0.1685	1.0488	9.8987	6.5973	0.9283	20.5200 
1032.025	0.0093	0.2866	1.0322	10.0031	6.7401	1.2305	20.5200 
1032.025	0.0767	0.3887	1.0146	10.2008	6.8665	1.6370	20.5200 
1032.025	0.1431	0.1914	1.0005	10.3381	6.8719	2.4115	20.5100 
1032.025	0.0313	0.0591	1.0068	10.4480	7.0203	3.0377	20.5000 
1032.025	-0.3013	0.1309	1.3730	10.7281	7.6135	3.1805	20.5100 
1032.042	-0.3057	0.4272	1.4238	11.0632	8.1409	3.1421	20.5200 
1032.065	-0.2119	0.3481	1.2031	11.3983	8.1958	3.7738	20.5200 
1032.086	-0.1865	0.0513	0.8652	11.5247	8.0969	4.5758	20.5200 
1032.103	-0.2905	0.1328	0.9595	11.5247	8.6682	4.6143	20.5000 
1032.122	-0.4063	0.1240	1.1665	11.4862	9.2999	4.6472	20.5100 
1032.223	-0.4019	0.1021	1.2852	11.2775	9.5966	4.8724	20.5100 
1032.242	-0.2393	0.3315	1.2534	11.1127	9.6075	5.2020	20.5100 
1032.242	-0.1045	0.2090	0.9448	11.1072	9.1351	6.1194	20.5100 
1032.242	-0.0664	0.1387	0.8540	11.0358	8.6957	7.1521	20.5100 
1032.242	-0.0889	0.1211	0.7959	10.8929	8.4430	7.9321	20.4900 
1032.263	-0.1255	0.0444	0.7476	10.6787	8.2452	8.4760	20.4900 
1032.263	-0.1533	0.1543	0.8013	10.4755	8.1903	8.5693	20.4900 
1032.286	-0.1392	0.2744	0.8633	10.3876	8.1354	8.5693	20.4800 
1032.301	-0.0835	0.2334	0.7959	10.3217	7.8772	8.7891	20.4800 
1032.323	-0.0596	0.1890	0.7930	10.1678	7.6410	9.0198	20.4900 
1032.436	-0.0688	0.2119	0.8379	10.0031	7.5476	9.0308	20.4600 
1032.459	-0.0698	0.2339	0.8418	9.8932	7.4817	8.8934	20.4700 
1032.459	-0.0850	0.2251	0.9043	9.7943	7.4377	8.6902	20.4800 
1032.459	-0.0913	0.2773	0.9097	9.7064	7.4048	8.2947	20.4900 
1032.459	-0.0962	0.4131	0.9063	9.7174	7.3663	7.8113	20.4700 
1032.459	-0.0972	0.3818	0.9331	9.7174	7.2400	7.5861	20.4600 
1032.480	-0.1069	0.2646	0.9995	9.5911	7.0477	7.5256	20.4600 
1032.506	-0.1060	0.2661	1.0708	9.4592	6.8829	7.3553	20.4600 
1032.506	-0.1104	0.3359	1.0654	9.4537	6.6852	7.1191	20.4600 
1032.524	-0.1274	0.3257	1.0532	9.5032	6.4490	7.0203	20.4700 
1032.539	-0.1060	0.3818	1.0518	9.5306	6.2238	7.0203	20.4600 
1032.559	-0.0361	0.3887	1.0840	9.5251	5.9216	7.1851	20.4600 
1032.659	0.0742	0.3052	1.2358	9.4647	5.5096	7.5421	20.4600 
1032.682	0.0981	0.2090	1.2432	9.4318	5.0317	7.9321	20.4700 
1032.682	0.0972	0.1055	1.2109	9.4812	4.6307	8.2672	20.4600 
1032.682	0.0640	0.0601	1.2861	9.4922	4.4989	8.6902	20.4700 
1032.682	0.0210	-0.0972	1.2222	9.3384	4.4000	9.2560	20.4600 
1032.700	0.0234	-0.1240	1.1519	9.0417	4.3121	9.5856	20.4500 
1032.701	-0.1143	-0.0703	1.3125	8.7891	4.6143	9.3384	20.4600 
1032.797	-0.1323	0.1055	1.3125	8.7286	4.9823	8.7122	20.4600 
1032.810	-0.0498	0.2085	1.0562	8.8824	5.1361	8.2507	20.4500 
1032.810	-0.0156	0.0747	0.8765	9.0472	5.1031	8.2068	20.4500 
1032.810	-0.0088	0.0288	0.7373	9.1626	5.1691	8.2013	20.4500 
1032.810	-0.0156	0.1113	0.7817	9.3164	5.4602	7.9376	20.4300 
1032.826	-0.0288	0.0981	0.8276	9.4812	5.7239	7.7289	20.4300 
1032.842	-0.0112	0.0679	0.8682	9.5801	5.8832	7.5641	20.4600 
1032.860	0.0000	0.1362	0.8813	9.7394	6.0315	7.2620	20.4500 
1032.882	0.0171	0.1802	0.9272	9.9536	6.1469	7.0862	20.4400 
1032.900	0.0288	0.1636	0.9331	10.0635	6.1853	7.1136	20.4300 
1032.997	0.0156	0.1079	0.9346	10.1129	6.1963	7.1466	20.4300 
1033.007	0.0132	0.1689	0.9341	10.2063	6.2952	6.9269	20.4300 
1033.007	0.0356	0.3330	0.9658	10.3876	6.4600	6.6028	20.4300 
1033.007	0.0381	0.3203	0.9663	10.5688	6.5314	6.5643	20.4200 
1033.007	0.0073	0.2197	0.9683	10.7007	6.5533	6.7291	20.4300 
1033.023	-0.0317	0.2466	0.9990	10.8325	6.6742	6.8170	20.4200 
1033.038	-0.0635	0.2969	1.0503	10.9863	6.8115	6.9543	20.4100 
1033.058	-0.0093	0.3335	1.0234	11.1566	6.8500	7.2565	20.4100 
1033.078	0.1040	0.3477	0.9482	11.3434	6.7950	7.7509	20.4000 
1033.101	0.1128	0.2563	0.9463	11.4917	6.7456	8.3276	20.4200 
1033.210	-0.0454	0.1338	0.9712	11.6235	6.8500	8.7067	20.4200 
1033.226	-0.1982	0.1836	1.2534	11.7609	7.2729	8.7561	20.4100 
1033.226	-0.1748	0.4780	1.2686	11.9312	7.5751	8.7616	20.4100 
1033.226	-0.1821	0.2393	1.1182	12.1344	7.5201	9.3164	20.4000 
1033.226	-0.2686	0.0527	0.9980	12.1619	7.6630	9.5801	20.4200 
1033.226	-0.3120	0.2422	1.0913	12.1783	8.1354	9.3713	20.4100 
1033.243	-0.3799	0.0947	1.2061	12.1454	8.4100	9.5691	20.4200 
1033.257	-0.3379	0.0674	1.2593	11.9586	8.5309	9.9261	20.4000 
1033.277	-0.1494	0.3369	1.1807	11.8048	8.4705	10.2832	20.4000 
1033.295	-0.0845	0.2622	1.0127	11.7664	8.1189	11.0632	20.3900 
1033.315	-0.0854	0.1401	0.8647	11.6785	7.7618	12.0081	20.4000 
1033.409	-0.0825	0.1987	0.8120	11.5686	7.5421	12.7057	20.4000 
1033.423	-0.0952	0.1475	0.7695	11.4368	7.3114	13.3099	20.3900 
1033.425	-0.1016	0.1123	0.7559	11.2500	7.0862	13.7604	20.4000 
1033.425	-0.1055	0.2393	0.8242	11.0962	6.9873	13.8922	20.3900 
1033.425	-0.0869	0.3052	0.8433	11.0193	6.8884	13.9911	20.3900 
1033.456	-0.0630	0.2192	0.8164	10.9314	6.6797	14.2877	20.3900 
1033.479	-0.0674	0.1924	0.8398	10.7941	6.4929	14.5239	20.3900 
1033.479	-0.0786	0.2935	0.8838	10.7062	6.4050	14.4910	20.3700 
1033.496	-0.0938	0.3027	0.9063	10.6787	6.3391	14.4086	20.3900 
1033.514	-0.0869	0.2983	0.9170	10.6567	6.2128	14.3427	20.3800 
1033.607	-0.0684	0.3555	0.9429	10.6073	6.1029	14.2053	20.3800 
1033.624	-0.0552	0.3643	0.9800	10.5853	5.9546	14.1229	20.3900 
1033.624	-0.0640	0.3130	1.0151	10.5304	5.7458	14.1504	20.3800 
1033.624	-0.0566	0.3525	1.0420	10.4810	5.5316	14.0790	20.3600 
1033.624	-0.0591	0.3501	1.0391	10.5084	5.2734	13.9911	20.3600 
1033.656	-0.0732	0.3115	1.0083	10.5524	4.9768	13.9801	20.3600 
1033.675	-0.0459	0.3735	1.0947	10.5853	4.7736	13.9417	20.3500 
1033.676	0.0708	0.3564	1.2554	10.5908	4.4879	14.1449	20.3600 
1033.695	0.1118	0.2285	1.3071	10.5688	4.0704	14.6613	20.3500 
1033.714	0.1162	0.0596	1.2949	10.5139	3.6639	15.3040	20.3600 
1033.822	0.1230	0.0820	1.2202	10.4974	3.4882	15.6116	20.3600 
1033.842	0.1064	0.0942	1.2271	10.4480	3.4937	15.8038	20.3600 
1033.842	0.0923	-0.0938	1.1743	10.1898	3.4717	16.1005	20.3700 
1033.842	0.0205	-0.0854	1.2705	9.9261	3.7463	15.9357	20.3600 
1033.842	-0.0801	0.1694	1.2837	9.8932	4.1968	15.1611	20.3500 
1033.842	-0.0635	0.2476	1.1230	10.0085	4.4879	14.5349	20.3600 
1033.869	-0.0054	0.1177	0.8691	10.0909	4.5978	14.3811	20.3500 
1033.893	0.0127	0.0347	0.7627	10.0580	4.7406	14.3427	20.3600 
1033.914	0.0386	0.1138	0.7959	10.0140	5.0647	14.0460	20.3500 
1033.930	0.0332	0.1147	0.8125	10.0195	5.3558	13.7109	20.3600 
1034.040	0.0142	0.0596	0.7944	10.0031	5.5701	13.3813	20.3600 
1034.041	0.0186	0.1299	0.8311	10.0031	5.8337	12.8925	20.3500 
1034.068	0.0195	0.1597	0.9048	9.9976	6.0535	12.4750	20.3500 
1034.069	0.0376	0.1343	0.9180	9.9207	6.1908	12.2278	20.3500 
1034.069	0.0396	0.1240	0.9492	9.8053	6.3281	11.9751	20.3400 
1034.069	0.0269	0.1909	0.9868	9.7504	6.5314	11.5961	20.3400 
1034.069	0.0161	0.2388	1.0146	9.7723	6.7072	11.2775	20.3400 
1034.090	0.0063	0.2031	1.0054	9.8163	6.8225	11.1456	20.3200 
1034.112	-0.0068	0.2227	0.9946	9.9042	6.9324	11.0962	20.3400 
1034.134	-0.0283	0.2363	1.0259	10.0415	7.0532	11.1566	20.3400 
1034.134	-0.0259	0.2524	1.0542	10.1514	7.1521	11.3489	20.3500 
1034.149	0.0488	0.3926	1.0269	10.2942	7.2290	11.5356	20.3400 
1034.262	0.1519	0.3403	0.9722	10.4535	7.1906	11.9586	20.3400 
1034.272	0.1001	0.0981	0.9146	10.5249	7.0917	12.5848	20.3400 
1034.273	-0.1235	0.1216	1.0308	10.6458	7.3499	12.7167	20.3300 
1034.273	-0.2974	0.2471	1.3291	10.9644	7.9266	12.5244	20.3200 
1034.273	-0.2153	0.4429	1.2344	11.2225	8.1738	12.6837	20.3300 
1034.273	-0.1987	0.2217	1.1631	11.4258	8.0365	13.4308	20.3200 
1034.293	-0.2612	0.0093	1.0552	11.4038	8.0640	13.8593	20.3200 
1034.309	-0.2837	0.2876	1.0566	11.3818	8.5529	13.4198	20.3200 
1034.330	-0.3779	0.1113	1.1729	11.3928	8.9758	13.3594	20.3400 
1034.349	-0.3647	0.0054	1.2256	11.2225	9.2010	13.5077	20.3200 
1034.371	-0.1611	0.3887	1.2231	11.0468	9.2944	13.5626	20.3300 
1034.471	-0.0840	0.2959	0.9863	11.0248	8.9758	14.1449	20.3200 
1034.492	-0.0698	0.1294	0.7988	10.9149	8.5034	15.0073	20.3300 
1034.492	-0.0801	0.1831	0.7544	10.7611	8.2123	15.5402	20.3200 
1034.492	-0.0903	0.1152	0.6587	10.6128	7.9431	15.8972	20.3100 
1034.492	-0.0991	0.0972	0.6987	10.4041	7.7344	16.1005	20.3100 
1034.492	-0.0898	0.2095	0.7485	10.2338	7.5806	16.0126	20.3000 
1034.509	-0.0986	0.2207	0.8145	10.0964	7.4432	15.8917	20.3000 
1034.528	-0.1074	0.1982	0.8623	9.9316	7.2510	15.7819	20.2900 
1034.548	-0.1250	0.2026	0.9106	9.7614	7.1301	15.6281	20.3000 
1034.569	-0.1099	0.2397	0.9463	9.6405	7.0367	15.3699	20.2800 
1034.667	-0.0933	0.2729	0.9546	9.5801	6.9434	15.0732	20.3100 
1034.688	-0.1016	0.3037	0.9561	9.6075	6.8390	14.7437	20.2900 
1034.689	-0.1211	0.3843	0.9727	9.7119	6.7401	14.4470	20.2900 
1034.689	-0.1133	0.4092	0.9883	9.8108	6.5808	14.2877	20.2800 
1034.689	-0.0723	0.3374	1.0278	9.8273	6.3226	14.3317	20.2800 
1034.689	-0.0503	0.3032	1.0356	9.8108	6.0370	14.4086	20.2600 
1034.708	-0.0635	0.3418	1.0459	9.8438	5.8008	14.3866	20.2900 
1034.729	-0.0850	0.3364	1.0815	9.8767	5.5920	14.4196	20.2800 
1034.748	-0.0259	0.3286	1.2002	9.8492	5.3943	14.5129	20.2700 
1034.768	0.0620	0.3359	1.3413	9.7998	5.1581	14.7931	20.2600 
1034.789	0.1099	0.1196	1.3472	9.7668	4.7791	15.4138	20.2600 
1034.811	0.1382	0.0161	1.2515	9.7064	4.4440	16.0400	20.2600 
1034.826	0.1318	0.0303	1.1641	9.6350	4.3286	16.3367	20.2700 
1034.924	0.0640	-0.0918	1.1343	9.4592	4.3451	16.4685	20.2600 
1034.940	-0.0732	-0.0947	1.2871	9.2285	4.7021	16.0730	20.2800 
1034.940	-0.1172	0.0962	1.3320	9.1571	5.2075	15.1776	20.2700 
1034.940	-0.0869	0.1670	1.1509	9.2560	5.4437	14.4855	20.2700 
1034.940	-0.0532	0.0889	1.0054	9.3658	5.4767	14.1779	20.2700 
1034.963	-0.0015	0.0474	0.8184	9.4373	5.4987	13.9911	20.2500 
1034.982	0.0156	0.0972	0.8345	9.5251	5.6470	13.7164	20.2500 
1035.007	0.0405	0.0913	0.8149	9.6240	5.7788	13.5022	20.2500 
1035.026	0.0303	0.0537	0.7886	9.7064	5.8612	13.2825	20.2500 
1035.118	0.0161	0.1187	0.8003	9.8163	6.0315	12.8210	20.2600 
1035.141	0.0283	0.1899	0.8140	9.9481	6.2292	12.2827	20.2500 
1035.141	0.0288	0.1606	0.8647	10.0140	6.3721	11.9476	20.2600 
1035.141	0.0161	0.0981	0.8867	9.9811	6.4929	11.7609	20.2600 
1035.141	0.0161	0.1699	0.8936	9.9536	6.6797	11.3818	20.2600 
1035.141	0.0146	0.2520	0.9487	9.9976	6.9269	10.9094	20.2400 
1035.163	0.0171	0.2495	0.9360	10.0690	7.0697	10.6622	20.2500 
1035.183	-0.0044	0.1958	0.9629	10.1404	7.1631	10.6622	20.2300 
1035.203	-0.0508	0.2114	1.0483	10.2283	7.3059	10.7446	20.2500 
1035.219	-0.0537	0.2651	1.0918	10.3546	7.4542	10.8984	20.2500 
1035.324	0.0508	0.3745	1.0493	10.5084	7.5092	11.1731	20.2400 
1035.340	0.1299	0.3550	1.0098	10.6458	7.4817	11.6620	20.2400 
1035.341	0.0303	0.1147	0.9580	10.7556	7.4927	12.2333	20.2300 
1035.341	-0.1445	0.0801	1.0825	10.9204	7.7783	12.4585	20.2300 
1035.341	-0.3037	0.3677	1.3872	11.2006	8.4100	12.2662	20.2300 
1035.341	-0.2388	0.4932	1.2412	11.5356	8.7067	12.3541	20.2500 
1035.361	-0.2544	-0.0005	1.0430	11.7609	8.5913	13.1396	20.2200 
1035.385	-0.2773	0.0288	0.9707	11.7444	8.7726	13.3704	20.2300 
1035.400	-0.3623	0.2612	1.1499	11.7719	9.2560	13.1726	20.2300 
1035.416	-0.3984	0.1011	1.2559	11.7334	9.4977	13.4308	20.2300 
1035.523	-0.2144	0.2935	1.2695	11.5247	9.4922	13.7769	20.2200 
1035.540	-0.1147	0.2949	1.1240	11.4368	9.2120	14.3756	20.2100 
1035.540	-0.0654	0.1548	0.8550	11.3818	8.7067	15.2490	20.2300 
1035.540	-0.0732	0.2041	0.7910	11.2720	8.3496	15.8972	20.2400 
1035.541	-0.1021	0.1797	0.7363	11.1346	8.0475	16.3861	20.2300 
1035.541	-0.1299	0.0962	0.6812	10.9094	7.7838	16.7487	20.2100 
1035.560	-0.1230	0.1646	0.7246	10.6787	7.6245	16.8750	20.2100 
1035.580	-0.0972	0.2280	0.7803	10.4645	7.4213	17.0013	20.2100 
1035.600	-0.0684	0.2153	0.8101	10.2063	7.1686	17.1771	20.2300 
1035.617	-0.0688	0.2031	0.8682	9.9591	6.9543	17.3035	20.2100 
1035.632	-0.0811	0.1963	0.9233	9.7504	6.8060	17.3199	20.2100 
1035.743	-0.0601	0.2344	0.9326	9.5801	6.6522	17.1387	20.2200 
1035.752	-0.0464	0.2959	0.9502	9.4977	6.5259	16.7542	20.2000 
1035.752	-0.0420	0.4048	0.9575	9.4922	6.4105	16.3092	20.1900 
1035.752	-0.0566	0.3853	0.9761	9.4922	6.2567	16.0455	20.1900 
1035.752	-0.0728	0.2891	1.0176	9.4263	6.0590	15.8698	20.1900 
1035.753	-0.0869	0.3140	1.0469	9.3658	5.8777	15.5676	20.1800 
1035.769	-0.1006	0.3296	1.0449	9.3823	5.6635	15.2490	20.1900 
1035.783	-0.0981	0.3120	1.0376	9.3823	5.4272	15.0403	20.2000 
1035.804	-0.0190	0.3862	1.0264	9.3768	5.1526	14.8425	20.1800 
1035.819	0.0459	0.3535	1.1353	9.3658	4.8120	14.7821	20.2000 
1035.839	0.1138	0.2236	1.2798	9.3604	4.3781	14.9414	20.1800 
1035.947	0.1099	0.0991	1.2852	9.3878	3.9276	15.0568	20.1800 
1035.974	0.1289	0.0601	1.3042	9.3988	3.7189	14.9963	20.1800 
1035.974	0.1133	0.0322	1.3682	9.3384	3.6914	15.0073	20.1800 
1035.974	0.0479	-0.1655	1.1997	9.1241	3.5651	15.0952	20.1800 
1035.974	-0.0713	-0.1997	1.2549	8.8220	3.7518	14.8041	20.1700 
1035.974	-0.1772	0.0781	1.3389	8.6847	4.2737	13.7549	20.1700 
1036.002	-0.1143	0.2427	1.1924	8.7836	4.6252	12.7661	20.1600 
1036.020	0.0200	0.1885	0.8608	8.9868	4.6692	12.3541	20.1500 
1036.020	0.0649	0.0557	0.7051	9.1406	4.5813	12.3871	20.1500 
1036.043	0.0225	-0.0103	0.7275	9.1626	4.7296	12.3376	20.1600 
1036.062	-0.0020	0.0352	0.8247	9.1351	5.1141	11.8652	20.1400 
1036.175	-0.0112	0.0884	0.8296	9.1846	5.4272	11.2555	20.1300 
1036.190	-0.0054	0.0801	0.8242	9.2670	5.6525	10.7446	20.1300 
1036.190	0.0161	0.1226	0.8574	9.3164	5.8557	10.2667	20.1300 
1036.190	0.0259	0.1855	0.9189	9.3494	6.0754	9.8108	20.1300 
1036.190	-0.0200	0.0952	0.9277	9.3658	6.2018	9.5471	20.1200 
1036.190	-0.0322	0.1328	0.9536	9.3823	6.3776	9.2065	20.1300 
1036.207	-0.0063	0.2988	0.9937	9.5087	6.5918	8.8165	20.1300 
1036.222	0.0000	0.2720	1.0059	9.6625	6.7017	8.7341	20.1500 
1036.321	-0.0117	0.2021	0.9937	9.7998	6.7181	8.9594	20.1300 
1036.338	-0.0288	0.2603	1.0044	9.9646	6.8170	9.1626	20.1300 
1036.338	-0.0078	0.3247	1.0459	10.1404	6.9434	9.4702	20.1100 
1036.338	0.0464	0.3325	1.0210	10.2887	6.9928	9.9591	20.1100 
1036.338	0.1333	0.3052	0.9712	10.3986	6.9928	10.5524	20.1100 
1036.338	0.0825	0.2002	0.9463	10.5029	7.0093	11.1182	20.1000 
1036.357	-0.1245	0.1187	1.0303	10.6677	7.2070	11.4807	20.1200 
1036.377	-0.3047	0.1709	1.3550	10.8984	7.6959	11.6565	20.0900 
1036.396	-0.2100	0.4854	1.2227	11.0522	7.9541	11.9147	20.1100 
1036.419	-0.1909	0.2310	1.0640	11.1951	7.8552	12.6947	20.0900 
1036.520	-0.2373	-0.0684	1.0024	11.0907	7.8992	13.3594	20.0800 
1036.544	-0.2783	0.2178	1.0444	10.9698	8.4100	13.1232	20.0800 
1036.544	-0.3501	0.1929	1.2520	10.8600	8.8770	13.1891	20.0800 
1036.544	-0.2607	0.1719	1.2510	10.6073	8.9648	13.5187	20.0700 
1036.544	-0.1689	0.2539	1.1826	10.4041	8.8330	13.9471	20.0700 
1036.544	-0.0972	0.2051	0.9453	10.2997	8.4979	14.6173	20.0800 
1036.562	-0.0864	0.2119	0.8828	10.2063	8.2233	15.3479	20.0800 
1036.577	-0.0703	0.1694	0.8105	10.0360	7.9266	16.1115	20.0700 
1036.594	-0.0547	0.1255	0.7476	9.7668	7.5861	16.7706	20.0600 
1036.614	-0.0620	0.1470	0.7246	9.5306	7.3169	17.1661	20.0500 
1036.639	-0.0747	0.1533	0.7339	9.3658	7.1301	17.3859	20.0600 
1036.720	-0.0850	0.1865	0.7930	9.1956	7.0093	17.4792	20.0500 
1036.740	-0.0869	0.2231	0.8574	9.0363	6.8884	17.5122	20.0500 
1036.740	-0.0688	0.2246	0.8989	8.9044	6.6962	17.5507	20.0500 
1036.740	-0.0532	0.2520	0.9204	8.7891	6.4984	17.5452	20.0500 
1036.741	-0.0537	0.2544	0.9458	8.7451	6.3062	17.4847	20.0400 
1036.758	-0.0649	0.2646	0.9824	8.7451	6.1414	17.3254	20.0400 
1036.777	-0.0522	0.3730	0.9844	8.7946	5.9821	16.9135	20.0500 
1036.793	-0.0552	0.3975	1.0332	8.8550	5.8228	16.5179	20.0500 
1036.815	-0.0791	0.2900	1.0469	8.8605	5.6085	16.2927	20.0400 
1036.834	-0.0962	0.3052	1.0693	8.8495	5.4492	15.9906	20.0400 
1036.853	-0.1050	0.3379	1.1021	8.8605	5.2954	15.7214	20.0400 
1036.877	-0.0459	0.3208	1.1338	8.8165	5.0592	15.6171	20.0400 
1036.978	0.0908	0.3228	1.2974	8.7396	4.7736	15.6555	20.0300 
1037.011	0.1128	0.2544	1.3745	8.6957	4.4110	15.9192	20.0400 
1037.011	0.1382	0.0249	1.3076	8.6298	4.0100	16.3751	20.0200 
1037.011	0.1670	0.0425	1.2793	8.5529	3.8342	16.6608	20.0200 
1037.011	0.1348	-0.0649	1.1602	8.4155	3.7573	16.8365	20.0300 
1037.012	0.0596	-0.1733	1.1377	8.1793	3.7848	16.8805	20.0400 
1037.023	-0.1226	-0.0981	1.2324	8.0035	4.1364	16.2543	20.0300 
1037.052	-0.1616	0.1094	1.2368	8.0365	4.6417	15.0513	20.0300 
1037.067	-0.0469	0.2563	1.0161	8.2178	4.9219	14.1504	20.0100 
1037.094	0.0229	0.0811	0.8481	8.3661	4.9274	14.0021	20.0300 
1037.196	0.0635	-0.0181	0.6826	8.4155	4.9548	14.0350	20.0200 
1037.196	0.0483	0.0664	0.7700	8.4979	5.2789	13.6780	20.0200 
1037.231	0.0088	0.0386	0.7661	8.6462	5.6030	13.1671	20.0200 
1037.231	-0.0078	0.0459	0.7905	8.7616	5.9161	12.6123	20.0000 
1037.231	0.0161	0.1704	0.8560	8.8879	6.2732	11.8817	20.0100 
1037.231	0.0356	0.1870	0.8848	8.9923	6.5588	11.2885	20.0200 
1037.231	0.0127	0.1284	0.9209	9.0088	6.7401	10.9644	20.0100 
1037.251	-0.0059	0.1509	0.9487	8.9429	6.9434	10.6348	20.0100 
1037.266	-0.0093	0.1904	0.9658	8.8989	7.1521	10.2777	20.0200 
1037.292	-0.0015	0.1963	0.9512	8.8989	7.3114	10.0195	20.0000 
1037.404	-0.0142	0.2158	1.0039	8.9868	7.4707	9.8932	20.0000 
1037.423	-0.0415	0.2095	1.0474	9.1461	7.6190	9.9261	20.0100 
1037.424	-0.0747	0.1899	1.0972	9.3164	7.7563	10.1459	20.0000 
1037.424	0.0078	0.3794	1.0723	9.5142	7.8552	10.3656	20.0100 
1037.424	0.1187	0.4468	1.0186	9.7394	7.8223	10.8380	20.0000 
1037.424	0.1284	0.1641	0.9854	9.8712	7.7124	11.6290	19.9900 
1037.424	-0.0942	-0.0186	1.1353	9.9591	7.9376	12.1069	20.0000 
1037.441	-0.3472	0.3086	1.5298	10.1349	8.6078	11.7334	19.9900 
1037.456	-0.3042	0.5728	1.4385	10.4150	8.9429	11.5521	20.0000 
1037.549	-0.2534	0.0552	0.9277	10.6458	8.7012	12.1838	20.0000 
1037.555	-0.2852	-0.0669	0.8140	10.6403	8.9374	12.1234	19.9900 
1037.555	-0.3906	0.1528	1.1196	10.6348	9.5416	11.8762	20.0000 
1037.555	-0.4160	0.0166	1.2319	10.4755	9.7559	12.1014	19.9800 
1037.556	-0.2397	0.2715	1.2261	10.1953	9.7284	12.2772	19.9700 
1037.572	-0.1484	0.3164	1.1294	10.1129	9.4318	12.8156	19.9700 
1037.589	-0.0688	0.1235	0.8223	10.1074	8.8770	13.8483	19.9600 
1037.610	-0.0532	0.1797	0.7905	10.0305	8.5419	14.6997	19.9700 
1037.629	-0.0728	0.1182	0.7241	9.8657	8.2507	15.3809	19.9700 
1037.650	-0.0820	0.0742	0.7197	9.5801	7.9926	15.8807	19.9400 
1037.753	-0.0967	0.1582	0.7705	9.3164	7.8168	15.9961	19.9500 
1037.774	-0.0972	0.1978	0.8120	9.1241	7.6520	16.0291	19.9700 
1037.774	-0.0845	0.1929	0.8252	8.9813	7.4542	16.1279	19.9500 
1037.774	-0.0757	0.1797	0.8638	8.8495	7.2510	16.2268	19.9400 
1037.774	-0.0786	0.1963	0.9092	8.7231	7.0807	16.1829	19.9400 
1037.774	-0.0869	0.2520	0.9331	8.6627	6.9324	15.9631	19.9400 
1037.790	-0.0776	0.3320	0.9448	8.7067	6.7786	15.6610	19.9400 
1037.808	-0.0757	0.2915	0.9702	8.7836	6.5863	15.4688	19.9400 
1037.827	-0.0854	0.2852	0.9868	8.8550	6.3831	15.2380	19.9600 
1037.847	-0.1099	0.3369	1.0469	8.9978	6.2457	14.9304	19.9400 
1037.945	-0.0986	0.2983	1.0522	9.1736	6.0260	14.7766	19.9400 
1037.956	-0.0850	0.2817	1.0513	9.3274	5.7733	14.7437	19.9300 
1037.957	-0.0444	0.3687	1.1328	9.4867	5.5481	14.7382	19.9500 
1037.957	0.0112	0.3506	1.2769	9.6075	5.2789	14.9359	19.9400 
1037.957	0.0840	0.2100	1.4321	9.6790	4.9219	15.4028	19.9300 
1037.981	0.1387	0.1401	1.3735	9.7394	4.5428	15.9302	19.9400 
1037.997	0.2202	0.1895	1.1357	9.8273	4.2517	16.3586	19.9300 
1038.014	0.1675	0.0283	1.1074	9.8163	4.0430	16.8970	19.9200 
1038.030	0.0225	-0.2314	1.1245	9.5361	3.9935	17.3474	19.9200 
1038.050	-0.1074	-0.1143	1.2852	9.2560	4.3945	16.9684	19.9300 
1038.131	-0.1362	0.2671	1.2886	9.2560	4.9768	15.8313	19.9200 
1038.160	-0.0698	0.2627	1.0425	9.3933	5.2240	15.1666	19.9200 
1038.161	0.0200	0.0474	0.8027	9.4592	5.2679	15.1282	19.9200 
1038.161	0.0332	-0.0337	0.7007	9.4153	5.3613	15.1886	19.9200 
1038.161	0.0313	0.1157	0.7822	9.4373	5.7404	14.7107	19.9000 
1038.174	0.0229	0.1138	0.8203	9.5087	6.1194	14.1229	19.9000 
1038.192	0.0176	0.0444	0.8047	9.4977	6.3831	13.6340	19.8900 
1038.205	0.0273	0.1367	0.8628	9.4922	6.7236	12.9309	19.9000 
1038.227	0.0352	0.1792	0.8838	9.5251	7.0313	12.1948	19.8800 
1038.248	0.0049	0.1011	0.9395	9.4702	7.2729	11.6510	19.8900 
1038.267	-0.0283	0.0972	0.9766	9.3549	7.5421	11.0522	19.8700 
1038.288	-0.0054	0.2686	1.0010	9.3329	7.8058	10.3491	19.8800 
1038.398	0.0054	0.2520	1.0073	9.3878	7.9102	10.0470	19.8700 
1038.424	-0.0063	0.1255	0.9639	9.4482	7.8937	10.0525	19.8600 
1038.424	-0.0269	0.1948	0.9902	9.5471	7.9761	9.9591	19.8600 
1038.424	-0.0425	0.2783	1.0781	9.6844	8.0804	9.9426	19.8600 
1038.424	0.0142	0.3506	1.0625	9.8218	8.0914	10.0909	19.8500 
1038.424	0.1216	0.2979	1.0142	9.9481	8.0090	10.4919	19.8600 
1038.442	0.0508	0.0933	1.0098	10.0360	7.9816	10.9644	19.8600 
1038.465	-0.1987	0.1626	1.2783	10.1569	8.4210	10.7501	19.8300 
1038.482	-0.2681	0.4224	1.4629	10.3656	9.0033	10.2557	19.8400 
1038.496	-0.2207	0.3901	1.2373	10.5908	9.0857	10.3107	19.8300 
1038.616	-0.2451	0.0127	0.9385	10.6897	8.9703	10.6073	19.8300 
1038.644	-0.3550	0.0952	0.9292	10.6842	9.4537	10.0470	19.8200 
1038.644	-0.4370	0.1514	1.1040	10.7117	9.9811	9.6240	19.8100 
1038.644	-0.4272	-0.0508	1.1240	10.5579	10.1514	9.5856	19.8300 
1038.644	-0.2891	0.2231	1.1753	10.3381	10.2612	9.4757	19.8400 
1038.644	-0.1221	0.2588	1.0029	10.3656	9.9426	9.9756	19.8200 
1038.644	-0.1021	0.0430	0.8506	10.3546	9.4537	10.8765	19.8100 
1038.663	-0.0840	0.1929	0.8301	10.2338	9.2670	11.3269	19.8000 
1038.748	-0.0967	0.1289	0.7847	10.0909	9.0637	11.6949	19.8200 
1038.779	-0.1299	0.1167	0.7798	9.8767	8.8989	11.8707	19.8000 
1038.779	-0.1436	0.2007	0.8008	9.7504	8.8000	11.7664	19.8000 
1038.779	-0.1372	0.2495	0.8193	9.7009	8.6627	11.6840	19.8100 
1038.779	-0.1045	0.2456	0.8076	9.6185	8.4485	11.6785	19.8000 
1038.779	-0.0938	0.2329	0.8779	9.4867	8.2288	11.6510	19.8100 
1038.800	-0.1064	0.2012	0.8862	9.2999	8.0365	11.5247	19.7800 
1038.818	-0.1182	0.2314	0.8936	9.1516	7.8992	11.2170	19.7900 
1038.831	-0.1152	0.2710	0.8848	9.0967	7.7563	10.7941	19.8100 
1038.849	-0.1113	0.2910	0.9600	9.0747	7.5861	10.4041	19.7700 
1038.874	-0.1069	0.3086	1.0122	9.0253	7.3499	10.0415	19.7800 
1038.891	-0.1108	0.3057	1.0874	8.9923	7.0752	9.7174	19.7700 
1038.904	-0.1392	0.2383	1.1069	8.9978	6.7896	9.5032	19.7800 
1038.921	-0.1567	0.2905	1.1343	9.0747	6.5863	9.2999	19.7900 
1039.021	-0.1440	0.3291	1.0918	9.2340	6.3721	9.1626	19.7800 
1039.039	-0.0137	0.3550	1.1304	9.4318	6.0590	9.1571	19.7900 
1039.040	0.0850	0.3716	1.2207	9.6515	5.7184	9.2285	19.7800 
1039.040	0.1118	0.2271	1.1460	9.9481	5.2734	9.3768	19.7900 
1039.040	0.0947	0.1016	1.0513	10.2118	4.9054	9.4373	19.7800 
1039.055	0.1416	0.1777	1.2632	10.3381	4.9384	9.2285	19.7900 
1039.071	0.1807	0.0786	1.2622	10.2997	4.9384	9.2780	19.7700 
1039.168	0.1421	-0.1064	1.1499	10.0635	4.7845	9.3933	19.7800 
1039.190	-0.0005	-0.0479	1.2554	9.8053	4.9274	8.9484	19.7800 
1039.191	-0.1343	0.0991	1.3169	9.7009	5.3778	7.8882	19.7700 
1039.191	-0.1494	0.2397	1.1421	9.6844	5.6964	7.0038	19.7600 
1039.191	-0.0684	0.2354	0.8960	9.7449	5.7458	6.5753	19.7500 
1039.191	0.0425	0.0693	0.6333	9.7723	5.7019	6.5863	19.7600 
1039.207	0.0669	-0.0347	0.5806	9.6460	5.8008	6.7072	19.7700 
1039.224	0.0210	0.0327	0.7822	9.4537	6.2457	6.2732	19.7600 
1039.245	-0.0063	0.1162	0.8760	9.3549	6.7346	5.4218	19.7500 
1039.260	-0.0112	0.1294	0.9277	9.3054	7.0862	4.7186	19.7700 
1039.281	0.0171	0.1299	0.8813	9.2615	7.2839	4.2572	19.7600 
1039.371	-0.0020	0.0732	0.9482	9.1956	7.4597	3.9716	19.7400 
1039.398	-0.0171	0.1099	0.9932	9.0967	7.6410	3.5925	19.7500 
1039.398	0.0112	0.2754	0.9863	9.1132	7.8003	3.1476	19.7500 
1039.398	0.0137	0.2305	1.0186	9.1956	7.8827	2.9828	19.7500 
1039.398	0.0044	0.1802	1.0283	9.2944	7.9376	2.9553	19.7500 
1039.418	-0.0029	0.2700	1.0171	9.4867	8.0695	2.8345	19.7400 
1039.419	-0.0654	0.2412	1.0825	9.7174	8.2288	2.9443	19.7400 
1039.439	-0.0664	0.2246	1.0820	9.8712	8.3716	3.1970	19.7400 
1039.459	0.0391	0.3965	1.0205	10.0470	8.5089	3.4387	19.7400 
1039.478	0.0825	0.3374	0.9800	10.2667	8.5529	3.9276	19.7300 
1039.575	-0.0869	0.0293	1.0557	10.4260	8.6627	4.4934	19.7300 
1039.592	-0.2466	0.1279	1.2871	10.5853	9.1626	4.4659	19.7200 
1039.592	-0.3169	0.4473	1.4839	10.7941	9.6680	4.2188	19.7200 
1039.592	-0.3257	0.2954	1.2593	10.9534	9.7394	4.4165	19.7300 
1039.592	-0.2861	0.0854	0.7612	11.0028	9.7668	4.4440	19.7200 
1039.608	-0.3535	0.1270	0.9297	11.0083	10.2942	4.2737	19.7300 
1039.624	-0.4023	-0.0566	1.1284	10.8215	10.7007	4.3781	19.7300 
1039.637	-0.3032	0.0645	1.2280	10.4260	10.8435	4.4000	19.7100 
1039.657	-0.1782	0.3193	1.1841	10.1843	10.7172	4.5483	19.7000 
1039.679	-0.1274	0.1777	0.9775	10.0745	10.2448	5.2130	19.7200 
1039.772	-0.0845	0.2007	0.8438	9.9042	9.8657	5.8447	19.7100 
1039.789	-0.1147	0.1582	0.8462	9.7174	9.5966	6.3226	19.7200 
1039.789	-0.1641	-0.0029	0.7700	9.3823	9.3658	6.5204	19.7000 
1039.789	-0.1709	0.1753	0.7866	9.0802	9.3384	6.1578	19.7000 
1039.789	-0.1299	0.2607	0.8496	8.9319	9.2560	5.8942	19.7100 
1039.807	-0.1069	0.1094	0.8071	8.7286	8.9758	5.9546	19.6900 
1039.840	-0.1016	0.1626	0.8457	8.4595	8.7836	5.7294	19.6900 
1039.852	-0.1152	0.2534	0.8706	8.3112	8.6682	5.2350	19.7000 
1039.867	-0.1240	0.1704	0.8638	8.1958	8.5199	4.8944	19.6900 
1039.884	-0.1309	0.1504	0.8828	8.0695	8.3936	4.5703	19.6700 
1039.985	-0.1465	0.2192	0.9248	8.0090	8.3276	4.0649	19.6900 
1040.008	-0.1353	0.3091	0.9443	8.0200	8.2672	3.4662	19.6800 
1040.008	-0.0996	0.3413	0.9775	8.0750	8.1134	3.0597	19.6800 
1040.008	-0.0938	0.2554	0.9873	8.1079	7.8497	2.8674	19.6900 
1040.008	-0.0981	0.2803	1.0293	8.1299	7.6135	2.5488	19.6900 
1040.008	-0.0942	0.3398	1.0439	8.2068	7.4268	2.1204	19.6900 
1040.024	-0.1152	0.2671	1.0146	8.3112	7.1960	1.8567	19.6700 
1040.040	-0.1304	0.2959	1.0200	8.3881	7.0532	1.5106	19.6800 
1040.056	-0.0903	0.3857	1.0996	8.5199	6.9214	1.1700	19.6900 
1040.076	0.0093	0.3052	1.2842	8.6517	6.6083	1.2085	19.6900 
1040.096	0.0518	0.2148	1.3823	8.7616	6.2018	1.4667	19.6800 
1040.116	0.0981	0.0918	1.4087	8.8275	5.8447	1.7358	19.6700 
1040.133	0.1782	0.1357	1.1445	8.8605	5.4712	1.8677	19.6600 
1040.153	0.0996	-0.0435	1.0146	8.7616	5.2130	1.9501	19.6600 
1040.256	-0.0205	-0.1821	1.1167	8.4375	5.2734	1.6589	19.6600 
1040.272	-0.1729	-0.0825	1.2881	8.1464	5.6854	0.4999	19.6600 
1040.272	-0.1592	0.1909	1.2817	8.1134	6.0645	-0.8624	19.6700 
1040.272	-0.0996	0.1709	0.9766	8.2617	6.0809	-1.5271	19.6700 
1040.272	-0.0801	0.0005	0.8159	8.3112	5.9985	-1.7413	19.6600 
1040.291	-0.0718	-0.0254	0.8188	8.2452	6.1523	-2.1313	19.6400 
1040.306	-0.0493	0.0781	0.8354	8.2123	6.3995	-2.6312	19.6400 
1040.412	-0.0176	0.0068	0.9194	8.2013	6.5479	-2.8564	19.6500 
1040.421	0.0005	0.0220	0.8599	8.1958	6.6138	-3.0927	19.6400 
1040.421	0.0278	0.2290	0.9121	8.3112	6.7731	-3.4717	19.6400 
1040.421	0.0249	0.2017	0.9609	8.4320	6.8170	-3.5596	19.6400 
1040.421	0.0239	0.0547	0.9321	8.3716	6.7181	-3.3838	19.6200 
1040.422	0.0234	0.1104	0.9575	8.3221	6.6962	-3.4277	19.6100 
1040.450	0.0513	0.3115	0.9521	8.4265	6.7126	-3.6255	19.6100 
1040.476	0.0723	0.3164	0.9253	8.5693	6.6467	-3.5376	19.6200 
1040.476	0.0151	0.0928	0.9150	8.6517	6.5259	-3.1146	19.6200 
1040.496	-0.0522	0.0986	0.9473	8.7067	6.5918	-2.9608	19.6100 
1040.512	-0.0923	0.2383	1.0298	8.8495	6.7841	-2.9608	19.6000 
1040.531	-0.0381	0.2515	1.0508	9.0033	6.8500	-2.6642	19.6100 
1040.645	0.1074	0.2822	1.0005	9.0912	6.7950	-2.1313	19.6100 
1040.675	0.1665	0.2710	0.9800	9.1516	6.7511	-1.5765	19.6200 
1040.675	0.0029	0.1147	0.9502	9.2944	6.7841	-1.1261	19.6000 
1040.675	-0.1680	0.1118	1.1226	9.5856	7.0917	-0.9283	19.6100 
1040.675	-0.3164	0.2163	1.4907	9.9481	7.5311	-0.7251	19.6000 
1040.675	-0.2935	0.2783	1.4800	10.1624	7.7454	-0.3845	19.6000 
1040.676	-0.2261	0.1875	0.9814	10.3162	7.7948	-0.0220	19.6000 
1040.690	-0.2607	0.0977	0.8594	10.5139	8.1189	0.0934	19.6100 
1040.710	-0.3545	0.1123	1.0342	10.6238	8.7946	0.1263	19.5900 
1040.729	-0.3618	0.0747	1.2544	10.5853	9.4098	0.3790	19.5900 
1040.749	-0.1841	0.1880	1.2617	10.4315	9.5087	0.7581	19.5900 
1040.769	-0.0991	0.2002	1.0894	10.3601	9.2670	1.1755	19.5800 
1040.838	-0.0420	0.3330	0.8521	10.4315	8.9484	1.4008	19.5800 
1040.857	-0.0679	0.2944	0.8965	10.5304	8.7616	1.6864	19.5800 
1040.857	-0.1050	-0.0151	0.7490	10.3546	8.4595	1.9171	19.6000 
1040.858	-0.1558	0.0684	0.7954	10.0470	8.3881	1.2909	19.5800 
1040.873	-0.1318	0.4004	0.8247	10.0360	8.4210	0.2911	19.5900 
1040.890	-0.1392	0.1914	0.8833	9.9097	8.3661	-0.1099	19.5800 
1040.909	-0.1211	0.0356	0.8125	9.5911	8.1079	-0.4779	19.5600 
1040.930	-0.1655	0.2090	0.9043	9.3549	8.1519	-1.4777	19.5600 
1040.948	-0.2041	0.3091	1.0010	9.2780	8.3057	-2.5049	19.5700 
1041.049	-0.1489	0.2813	0.9360	9.2230	8.2672	-2.9828	19.5700 
1041.070	-0.1206	0.1509	0.8696	9.0912	8.1354	-3.1366	19.5600 
1041.070	-0.1406	0.2124	0.9243	8.9868	8.1628	-3.6530	19.5700 
1041.070	-0.1768	0.3267	0.9834	9.0308	8.2233	-4.4659	19.5500 
1041.071	-0.2114	0.2988	1.0269	9.0692	8.0914	-5.1196	19.5700 
1041.071	-0.1885	0.2739	0.9902	9.0637	7.8058	-5.6250	19.5500 
1041.088	-0.1440	0.2637	0.9897	9.0692	7.5092	-6.0205	19.5700 
1041.107	-0.1265	0.2598	0.9966	9.1296	7.2290	-6.3611	19.5700 
1041.128	-0.1235	0.2563	0.9971	9.2230	6.9818	-6.7072	19.5500 
1041.148	-0.1372	0.2573	1.0039	9.3549	6.7950	-7.0807	19.5400 
1041.249	-0.1392	0.2988	1.1499	9.4812	6.7181	-7.4817	19.5500 
1041.273	-0.0898	0.2729	1.3799	9.5856	6.6577	-7.6080	19.5300 
1041.273	0.0215	0.0972	1.5415	9.5471	6.4819	-7.2839	19.5300 
1041.273	0.1636	0.2485	1.0171	9.5032	6.0699	-7.1796	19.5500 
1041.273	0.1230	0.2261	0.8232	9.6295	5.7294	-7.1082	19.5400 
1041.273	0.0347	-0.0005	0.8237	9.5691	5.4327	-6.8170	19.5300 
1041.287	0.0005	-0.0835	1.0903	9.2010	5.4877	-6.7072	19.5200 
1041.307	-0.0225	-0.0303	1.1548	8.9154	5.6305	-6.9873	19.5100 
1041.329	-0.0142	0.1445	1.1528	8.8770	5.7513	-7.4817	19.5400 
1041.345	-0.0190	0.1338	1.0547	8.9429	5.7898	-7.8113	19.5200 
1041.446	-0.0625	0.0186	1.0098	8.9154	5.8337	-8.0640	19.5300 
1041.454	-0.0581	0.0396	0.9712	8.8275	5.9711	-8.4155	19.5300 
1041.454	0.0029	0.1401	0.9448	8.8220	6.0864	-8.6023	19.5100 
1041.454	0.0366	0.0874	0.9087	8.8055	6.0480	-8.4485	19.5200 
1041.454	0.0752	0.1235	0.9248	8.7506	5.9821	-8.2617	19.5000 
1041.483	0.0698	0.1523	0.9639	8.7286	5.9491	-8.1573	19.5000 
1041.510	0.0444	0.1313	0.9868	8.7012	5.8997	-8.0804	19.5000 
1041.522	0.0254	0.1411	0.9902	8.7012	5.8612	-8.0695	19.5200 
1041.539	0.0107	0.1929	1.0073	8.7396	5.8502	-8.0585	19.5000 
1041.559	0.0200	0.1738	1.0156	8.7726	5.7843	-7.8882	19.4900 
1041.661	0.0444	0.1997	0.9888	8.7946	5.6909	-7.6355	19.4900 
1041.671	0.0464	0.2139	1.0000	8.8495	5.6250	-7.3279	19.5100 
1041.671	0.0259	0.1367	0.9922	8.8715	5.5701	-6.9159	19.5000 
1041.671	0.0127	0.1528	1.0015	8.9044	5.5646	-6.5808	19.4800 
1041.671	0.0005	0.2451	1.0322	9.0143	5.6415	-6.3281	19.5000 
1041.671	0.0205	0.2471	1.0156	9.1516	5.6470	-5.9546	19.4900 
1041.688	0.0566	0.2334	0.9834	9.2615	5.6195	-5.4218	19.4800 
1041.706	0.0688	0.2383	0.9629	9.3604	5.6195	-4.8889	19.4900 
1041.822	0.0459	0.2070	0.9810	9.4647	5.6525	-4.3726	19.4900 
1041.840	-0.0200	0.1714	1.0635	9.5911	5.7568	-3.8892	19.4800 
1041.841	-0.1338	0.1553	1.2964	9.7449	5.9546	-3.4827	19.4800 
1041.841	-0.1455	0.2261	1.3169	9.9042	6.1359	-3.1531	19.5000 
1041.841	-0.1631	0.2354	1.3389	10.0690	6.2842	-2.7356	19.4900 
1041.841	-0.1074	0.3091	0.9810	10.2118	6.3611	-2.4445	19.4700 
1041.857	-0.0566	0.3130	0.7515	10.3931	6.4545	-2.1643	19.4900 
1041.873	-0.1567	0.0024	0.6904	10.3876	6.6083	-1.6699	19.4900 
1041.889	-0.2769	-0.1021	0.8735	10.1404	7.0642	-1.6370	19.4800 
1041.909	-0.2935	0.1201	1.1733	9.8932	7.5146	-1.8402	19.4600 
1041.925	-0.1846	0.2744	1.2300	9.7504	7.5861	-1.7303	19.4600 
1042.024	-0.0498	0.2075	1.0674	9.6625	7.2839	-1.2140	19.4700 
1042.040	-0.0239	0.2485	1.0713	9.5966	7.0807	-0.7910	19.4800 
1042.040	-0.0405	0.2412	0.9922	9.5416	6.9269	-0.4230	19.4700 
1042.041	-0.0713	0.1699	0.8818	9.3933	6.7566	-0.1703	19.4700 
1042.041	-0.0923	0.2729	0.8599	9.2395	6.7017	-0.2307	19.4800 
1042.058	-0.0918	0.2500	0.8691	9.1296	6.6083	-0.2142	19.4800 
1042.073	-0.1191	0.1348	0.9067	8.9154	6.5094	-0.1648	19.4600 
1042.090	-0.1216	0.1982	0.9409	8.6407	6.5479	-0.3790	19.4600 
1042.109	-0.1318	0.1660	0.9751	8.3496	6.6193	-0.6372	19.4700 
1042.125	-0.1357	0.1494	0.9590	8.0420	6.7072	-0.9338	19.4600 
1042.142	-0.1548	0.1846	0.9771	7.7673	6.8335	-1.3568	19.4500 
1042.235	-0.1709	0.1875	0.9717	7.5421	6.9489	-1.7963	19.4500 
1042.260	-0.1685	0.1577	0.9434	7.3663	7.0038	-2.1753	19.4500 
1042.260	-0.1694	0.1528	0.9551	7.2235	7.0148	-2.5323	19.4500 
1042.260	-0.1821	0.1123	0.9614	7.1576	6.9324	-2.8564	19.4500 
1042.260	-0.1812	0.1201	0.9634	7.1521	6.8060	-3.2135	19.4400 
1042.280	-0.1670	0.1880	0.9873	7.2400	6.6797	-3.5596	19.4500 
1042.300	-0.1621	0.1719	1.0063	7.3608	6.5259	-3.7738	19.4300 
1042.323	-0.1509	0.1602	1.0400	7.4542	6.4160	-3.9056	19.4400 
1042.324	-0.1372	0.1143	1.2642	7.4872	6.4490	-3.8727	19.4300 
1042.340	-0.0308	0.1235	1.4619	7.4707	6.4215	-3.7354	19.4300 
1042.425	0.0586	0.2612	1.3018	7.5421	6.1908	-3.5651	19.4300 
1042.437	0.0645	0.1533	1.0674	7.6849	5.7513	-3.0762	19.4300 
1042.437	0.0288	0.0054	0.9014	7.6465	5.2899	-2.5378	19.4300 
1042.437	-0.0171	0.0781	0.9380	7.4817	5.2515	-2.5214	19.4100 
1042.460	0.0269	0.2002	0.9146	7.4652	5.3833	-2.7631	19.4100 
1042.473	0.0747	-0.0366	0.8628	7.4377	5.3723	-2.6642	19.4200 
1042.491	0.0645	-0.0928	0.9395	7.2894	5.3833	-2.5433	19.4100 
1042.508	-0.0039	-0.0303	1.1763	7.1631	5.5536	-2.8564	19.4100 
1042.523	-0.0591	-0.0698	1.2261	7.0532	5.6195	-3.1805	19.4200 
1042.543	-0.0532	0.0742	1.1958	6.9928	5.6085	-3.5046	19.4000 
1042.651	-0.0088	0.1514	1.1289	6.9928	5.5371	-3.5925	19.3900 
1042.672	0.0630	0.0303	0.9189	6.9708	5.2844	-3.1531	19.3900 
1042.673	0.0859	0.0146	0.8711	6.8774	5.0537	-2.6093	19.4100 
1042.673	0.0396	0.0244	0.9160	6.7950	4.9823	-2.2357	19.3800 
1042.673	0.0078	-0.0142	0.9312	6.7236	4.9109	-1.8842	19.3900 
1042.673	-0.0015	-0.0190	0.9985	6.6907	4.8065	-1.5546	19.3900 
1042.689	0.0054	0.0239	1.0586	6.7126	4.6747	-1.2195	19.3900 
1042.706	0.0293	0.0781	1.0835	6.7950	4.4659	-0.8185	19.3900 
1042.736	0.0225	0.0674	1.2300	6.8555	4.2737	-0.3406	19.3900 
1042.752	0.0532	0.1587	1.1265	6.9324	4.0540	-0.0385	19.3700 
1042.867	-0.0010	0.1509	1.1621	7.0697	3.9990	0.2527	19.3700 
1042.896	-0.0254	0.1118	1.0205	7.1851	3.9441	0.5164	19.3900 
1042.896	-0.0317	0.2739	0.9727	7.3279	4.0540	0.5328	19.3800 
1042.896	-0.0283	0.1870	0.9248	7.4487	4.0430	0.8130	19.3800 
1042.896	-0.0283	0.0659	0.9058	7.4158	3.9825	1.1426	19.3800 
1042.896	-0.0176	0.1846	0.9468	7.3938	3.9880	1.2195	19.3600 
1042.896	0.0044	0.1504	0.9907	7.3883	3.8617	1.4886	19.3500 
1042.916	0.0142	0.0898	1.0371	7.3004	3.6914	1.8347	19.3900 
1042.939	0.0181	0.1870	1.1167	7.2180	3.6035	1.9885	19.3700 
1042.939	0.0112	0.1768	1.0645	7.1521	3.4882	2.1478	19.3700 
1042.958	0.0083	0.1484	1.0034	7.0752	3.4277	2.3126	19.3600 
1042.976	-0.0059	0.1523	0.9863	7.0038	3.4277	2.4005	19.3600 
1043.083	-0.0195	0.1675	0.9883	6.9379	3.4497	2.4390	19.3700 
1043.114	-0.0088	0.1782	1.0166	6.8665	3.4497	2.5049	19.3700 
1043.114	0.0049	0.1455	1.0215	6.7621	3.4167	2.6312	19.3600 
1043.114	0.0132	0.1528	1.0220	6.6467	3.4277	2.7026	19.3700 
1043.114	0.0024	0.1802	1.0459	6.5533	3.4882	2.7081	19.3700 
1043.114	-0.0117	0.1411	1.0337	6.4655	3.5376	2.7521	19.3600 
1043.134	-0.0249	0.1362	1.0298	6.3721	3.6035	2.7740	19.3400 
1043.242	-0.0249	0.1563	1.0244	6.3116	3.6584	2.7795	19.3400 
1043.274	-0.0166	0.1304	0.9971	6.2567	3.6749	2.8345	19.3600 
1043.274	-0.0181	0.1450	1.0083	6.2073	3.6969	2.8619	19.3500 
1043.274	-0.0063	0.1807	1.0342	6.1743	3.7189	2.8729	19.3500 
1043.274	0.0093	0.1504	1.0190	6.1469	3.6969	2.9608	19.3600 
1043.274	0.0083	0.1494	1.0269	6.1194	3.6969	3.0267	19.3500 
1043.274	0.0024	0.1743	1.0298	6.1194	3.7299	3.0212	19.3400 
1043.296	-0.0298	0.1436	1.0410	6.1249	3.7738	3.0322	19.3600 
1043.320	-0.0337	0.1631	1.0425	6.1029	3.8342	3.0212	19.3500 
1043.320	-0.0020	0.1763	1.0220	6.0754	3.8617	3.0597	19.3500 
1043.338	0.0146	0.1509	0.9873	6.0425	3.8287	3.1915	19.3600 
1043.360	0.0234	0.1748	0.9946	5.9985	3.8123	3.2794	19.3500 
1043.453	0.0137	0.1431	1.0146	5.9601	3.8068	3.3673	19.3600 
1043.473	-0.0088	0.1250	1.0298	5.8997	3.8123	3.4113	19.3600 
1043.473	-0.0146	0.1631	1.0420	5.8557	3.8452	3.3618	19.3600 
1043.473	-0.0122	0.1372	1.0234	5.8392	3.8342	3.3893	19.3700 
1043.473	-0.0073	0.1304	1.0234	5.8063	3.8013	3.4552	19.3700 
1043.493	0.0059	0.1714	1.0210	5.7843	3.7793	3.4772	19.3700 
1043.514	0.0146	0.1348	1.0078	5.7733	3.7134	3.5596	19.3600 
1043.534	0.0127	0.1445	1.0166	5.7623	3.6694	3.6145	19.3600 
1043.552	0.0039	0.1650	1.0337	5.7568	3.6584	3.5980	19.3700 
1043.662	-0.0093	0.1187	1.0308	5.7458	3.6255	3.6420	19.3700 
1043.690	-0.0039	0.1499	1.0425	5.7294	3.6090	3.6475	19.3700 
1043.690	0.0063	0.1577	1.0376	5.7404	3.5706	3.6969	19.3800 
1043.690	0.0205	0.1289	1.0078	5.7513	3.5101	3.7958	19.3600 
1043.691	0.0215	0.1553	1.0181	5.7623	3.4882	3.8232	19.3500 
1043.691	0.0132	0.1348	1.0205	5.7733	3.4662	3.8672	19.3700 
1043.691	0.0029	0.1260	1.0303	5.7788	3.4607	3.8892	19.3600 
1043.705	0.0039	0.1587	1.0322	5.8008	3.4607	3.8782	19.3700 
1043.730	0.0068	0.1387	1.0225	5.8228	3.4332	3.9331	19.3600 
1043.744	0.0098	0.1304	1.0200	5.8337	3.4113	3.9935	19.3800 
1043.771	0.0127	0.1567	1.0249	5.8557	3.4113	4.0155	19.3900 
1043.863	0.0166	0.1504	1.0244	5.8832	3.4003	4.0649	19.4000 
1043.891	0.0176	0.1396	1.0239	5.9052	3.3893	4.1309	19.3800 
1043.891	0.0078	0.1504	1.0234	5.9271	3.4003	4.1638	19.3700 
1043.891	0.0068	0.1611	1.0303	5.9491	3.4222	4.2023	19.3800 
1043.891	0.0068	0.1216	1.0176	5.9436	3.4277	4.2792	19.3800 
1043.891	0.0093	0.1519	1.0220	5.9326	3.4607	4.2957	19.3700 
1043.891	0.0078	0.1577	1.0225	5.9491	3.4827	4.3341	19.3700 
1043.912	0.0063	0.1279	1.0132	5.9546	3.4937	4.4275	19.3700 
1043.932	0.0083	0.1660	1.0176	5.9656	3.5266	4.4550	19.3700 
1043.951	0.0039	0.1523	1.0269	5.9766	3.5486	4.5154	19.3800 
1043.976	0.0059	0.1318	1.0278	5.9656	3.5651	4.5923	19.3900 
1044.090	0.0083	0.1548	1.0259	5.9656	3.5925	4.6252	19.4000 
1044.105	0.0073	0.1392	1.0190	5.9766	3.5980	4.6802	19.3700 
1044.105	0.0073	0.1440	1.0171	5.9821	3.6035	4.7186	19.3700 
1044.105	0.0020	0.1460	1.0229	5.9985	3.6145	4.7516	19.3900 
1044.105	0.0034	0.1333	1.0229	6.0150	3.6145	4.8065	19.3800 
1044.105	0.0034	0.1528	1.0195	6.0260	3.6255	4.8340	19.3600 
1044.122	0.0073	0.1470	1.0195	6.0425	3.6310	4.8724	19.3800 
1044.139	0.0063	0.1450	1.0239	6.0425	3.6365	4.9109	19.3800 
1044.166	0.0063	0.1563	1.0361	6.0480	3.6420	4.9274	19.3800 
1044.180	0.0059	0.1313	1.0127	6.0535	3.6310	4.9658	19.3800 
1044.211	0.0044	0.1436	1.0171	6.0590	3.6310	4.9878	19.3800 
1044.320	-0.0010	0.1470	1.0264	6.0699	3.6365	4.9988	19.3800 
1044.320	-0.0029	0.1333	1.0220	6.0699	3.6420	5.0427	19.3700 
1044.338	0.0044	0.1553	1.0283	6.0645	3.6530	5.0812	19.3700 
1044.338	0.0088	0.1465	1.0186	6.0699	3.6530	5.1416	19.3800 
1044.338	0.0029	0.1401	1.0117	6.0699	3.6475	5.1965	19.3700 
1044.338	0.0024	0.1621	1.0254	6.0699	3.6639	5.2020	19.3900 
1044.338	0.0034	0.1338	1.0210	6.0590	3.6530	5.2625	19.3800 
1044.366	0.0054	0.1328	1.0176	6.0425	3.6420	5.3229	19.3800 
1044.477	-0.0015	0.1504	1.0366	6.0260	3.6530	5.3503	19.3700 
1044.494	0.0073	0.1499	1.0195	6.0095	3.6530	5.3943	19.3900 
1044.494	0.0015	0.1304	1.0181	5.9875	3.6530	5.4547	19.3800 
1044.494	0.0034	0.1470	1.0220	5.9601	3.6749	5.4712	19.3800 
1044.494	0.0000	0.1387	1.0273	5.9436	3.6859	5.4987	19.3800 
1044.494	-0.0044	0.1230	1.0259	5.9216	3.6914	5.5591	19.3900 
1044.494	-0.0005	0.1421	1.0195	5.9052	3.7024	5.5811	19.3800 
1044.528	0.0044	0.1445	1.0190	5.9052	3.7134	5.6360	19.3900 
1044.550	0.0029	0.1250	1.0283	5.8887	3.7079	5.7184	19.3900 
1044.550	0.0000	0.1479	1.0288	5.8832	3.7134	5.7513	19.3800 
1044.566	0.0024	0.1436	1.0264	5.8832	3.7079	5.8063	19.4000 
1044.586	-0.0020	0.1289	1.0181	5.8722	3.7024	5.8557	19.3800 
1044.692	-0.0039	0.1460	1.0352	5.8777	3.7189	5.8667	19.3800 
1044.703	0.0000	0.1309	1.0190	5.8942	3.7024	5.9052	19.3700 
1044.703	-0.0005	0.1328	1.0195	5.9106	3.6914	5.9381	19.3900 
1044.703	-0.0020	0.1450	1.0259	5.9381	3.6859	5.9601	19.3800 
1044.703	-0.0015	0.1284	1.0229	5.9546	3.6694	6.0095	19.3900 
1044.725	-0.0039	0.1499	1.0298	5.9766	3.6584	6.0205	19.3900 
1044.746	-0.0015	0.1484	1.0303	5.9985	3.6420	6.0480	19.3800 
1044.769	0.0024	0.1309	1.0186	6.0095	3.6090	6.0919	19.3700 
1044.784	0.0005	0.1470	1.0186	6.0205	3.5980	6.0974	19.3900 
1044.795	-0.0015	0.1396	1.0210	6.0315	3.5925	6.1084	19.3800 
1044.890	0.0034	0.1460	1.0273	6.0425	3.5815	6.1139	19.3800 
1044.922	0.0073	0.1338	1.0244	6.0425	3.5706	6.1414	19.3800 
1044.922	0.0039	0.1304	1.0229	6.0425	3.5596	6.1688	19.4000 
1044.922	0.0000	0.1484	1.0225	6.0480	3.5651	6.1688	19.4000 
1044.922	-0.0020	0.1392	1.0220	6.0590	3.5596	6.1908	19.4000 
1044.922	0.0029	0.1460	1.0288	6.0590	3.5486	6.2128	19.3800 
1044.943	0.0039	0.1401	1.0215	6.0645	3.5376	6.2457	19.4000 
1044.964	0.0010	0.1416	1.0273	6.0535	3.5376	6.2677	19.3800 
1044.984	0.0005	0.1514	1.0293	6.0480	3.5431	6.2787	19.4000 
1044.998	-0.0034	0.1245	1.0161	6.0315	3.5431	6.3116	19.4000 
1045.114	0.0015	0.1396	1.0225	6.0095	3.5541	6.3226	19.3900 
1045.120	0.0015	0.1353	1.0249	5.9875	3.5651	6.3391	19.4000 
1045.120	-0.0010	0.1284	1.0176	5.9656	3.5651	6.3776	19.3900 
1045.120	0.0049	0.1426	1.0264	5.9436	3.5706	6.3995	19.4100 
1045.120	0.0010	0.1172	1.0229	5.9216	3.5541	6.4545	19.3900 
1045.120	0.0024	0.1470	1.0347	5.8997	3.5651	6.4655	19.4100 
1045.141	-0.0020	0.1387	1.0259	5.8887	3.5706	6.4874	19.4000 
1045.163	-0.0059	0.1216	1.0239	5.8722	3.5706	6.5204	19.4000 
1045.182	-0.0020	0.1475	1.0332	5.8667	3.5870	6.5094	19.4000 
1045.197	0.0020	0.1216	1.0195	5.8667	3.5706	6.5479	19.3800 
1045.224	0.0015	0.1299	1.0181	5.8502	3.5596	6.5753	19.3800 
1045.320	-0.0024	0.1431	1.0278	5.8502	3.5706	6.5753	19.4100 
1045.339	-0.0029	0.1196	1.0195	5.8392	3.5541	6.6138	19.4000 
1045.339	-0.0044	0.1396	1.0259	5.8282	3.5596	6.6193	19.3900 
1045.339	-0.0029	0.1494	1.0322	5.8392	3.5651	6.6248	19.4000 
1045.339	0.0044	0.1206	1.0215	5.8392	3.5431	6.6852	19.4000 
1045.339	0.0044	0.1328	1.0264	5.8282	3.5321	6.7236	19.4100 
1045.360	0.0039	0.1382	1.0269	5.8392	3.5266	6.7401	19.3900 
1045.381	0.0049	0.1333	1.0142	5.8502	3.5101	6.7621	19.3800 
1045.395	0.0010	0.1421	1.0249	5.8612	3.5101	6.7731	19.3900