StartTime: 2018-11-18 09:26:32.427
Time(s)	ax(g)	ay(g)	az(g)	AngleX(deg)	AngleY(deg)	AngleZ(deg)	T(Â°) 
1136.633	0.0508	0.2290	1.0142	11.2061	0.6812	-5.1086	19.8600 
1136.633	0.0522	0.2236	1.0049	11.2061	0.6702	-5.1416	19.8700 
1136.634	0.0459	0.2197	1.0049	11.2061	0.6702	-5.1801	19.8700 
1136.665	0.0483	0.2422	1.0088	11.2170	0.6866	-5.2460	19.8700 
1136.684	0.0527	0.2202	1.0088	11.2225	0.6702	-5.2625	19.8600 
1136.684	0.0513	0.2153	0.9990	11.2225	0.6592	-5.2789	19.8500 
1136.709	0.0493	0.2412	1.0073	11.2280	0.6702	-5.3339	19.8500 
1136.723	0.0498	0.2266	1.0088	11.2335	0.6592	-5.3503	19.8500 
1136.743	0.0483	0.2275	1.0039	11.2280	0.6537	-5.3778	19.8600 
1136.847	0.0474	0.2349	1.0054	11.2225	0.6592	-5.4163	19.8600 
1136.865	0.0459	0.2275	1.0029	11.2006	0.6647	-5.4547	19.8700 
1136.866	0.0439	0.2339	1.0107	11.1841	0.6921	-5.5151	19.8500 
1136.866	0.0464	0.2461	1.0034	11.1731	0.7086	-5.5865	19.8500 
1136.866	0.0444	0.2417	1.0000	11.1621	0.7251	-5.6689	19.8700 
1136.866	0.0405	0.2188	0.9961	11.1401	0.7471	-5.7513	19.8400 
1136.884	0.0396	0.2373	1.0059	11.1072	0.7800	-5.8667	19.8700 
1136.906	0.0356	0.2305	1.0039	11.0742	0.8020	-5.9601	19.8700 
1137.000	0.0342	0.2300	1.0000	11.0413	0.8020	-6.0370	19.8600 
1137.012	0.0459	0.2671	1.0010	11.0303	0.8020	-6.1194	19.8700 
1137.012	0.0449	0.2427	0.9917	11.0193	0.7800	-6.1578	19.8500 
1137.013	0.0293	0.2642	0.9995	10.9918	0.7855	-6.2457	19.8500 
1137.013	0.0156	0.2661	1.0264	10.9479	0.8350	-6.3831	19.8700 
1137.028	0.0117	0.2437	1.0000	10.8875	0.8679	-6.5094	19.8600 
1137.044	0.0205	0.2632	0.9937	10.8160	0.9064	-6.6357	19.8600 
1137.064	0.0269	0.2412	0.9800	10.7391	0.9009	-6.7236	19.8700 
1137.083	0.0205	0.2485	0.9956	10.6567	0.9009	-6.8280	19.8600 
1137.106	0.0288	0.2690	1.0015	10.5908	0.9009	-6.9214	19.8800 
1137.123	0.0195	0.1948	0.9819	10.4974	0.8514	-6.9379	19.8800 
1137.141	0.0127	0.2891	1.0220	10.3986	0.8789	-7.1191	19.8600 
1137.164	0.0195	0.2764	1.0073	10.3491	0.8844	-7.2400	19.8700 
1137.273	0.0234	0.1909	0.9722	10.2448	0.8405	-7.2400	19.8600 
1137.280	0.0156	0.2446	1.0283	10.1624	0.8734	-7.3663	19.8800 
1137.280	0.0200	0.2222	1.0073	10.1294	0.8679	-7.4323	19.8600 
1137.280	0.0161	0.1729	0.9688	10.0635	0.8405	-7.4377	19.8700 
1137.280	0.0122	0.2798	1.0205	10.0305	0.9119	-7.5861	19.8700 
1137.280	0.0146	0.2534	1.0327	10.0415	0.9338	-7.6080	19.8800 
1137.302	0.0400	0.1665	1.0059	9.9976	0.8734	-7.4542	19.8700 
1137.320	0.0679	0.2319	1.0029	9.9591	0.8679	-7.3718	19.8700 
1137.404	0.0840	0.2593	0.9805	9.9811	0.8569	-7.2455	19.8700 
1137.416	0.1016	0.2134	0.9209	9.9756	0.7910	-6.9928	19.8700 
1137.416	0.1240	0.2334	0.9136	9.9536	0.7306	-6.7511	19.8700 
1137.416	0.1504	0.2085	1.0044	9.8932	0.6372	-6.4270	19.8600 
1137.433	0.1636	0.1836	1.0962	9.7614	0.4944	-6.0754	19.8700 
1137.451	0.1826	0.2759	1.0928	9.6954	0.3186	-5.8392	19.8700 
1137.466	0.1704	0.2290	1.0684	9.6570	0.1208	-5.5316	19.8700 
1137.487	0.1123	0.2100	1.0605	9.5911	0.0165	-5.3339	19.8600 
1137.502	0.1104	0.3403	1.0908	9.5746	0.0769	-5.3229	19.8700 
1137.519	0.1392	0.3091	0.9429	9.5801	-0.0110	-5.0372	19.8800 
1137.607	0.1572	0.1997	0.8628	9.4867	-0.1593	-4.5703	19.8800 
1137.634	0.1475	0.2539	0.8794	9.3658	-0.1593	-4.3781	19.8600 
1137.634	0.1006	0.2393	0.9365	9.2340	-0.1099	-4.2627	19.8500 
1137.634	0.1064	0.1929	0.9775	9.0308	-0.1483	-4.0759	19.8700 
1137.634	0.1392	0.2012	0.9961	8.8330	-0.2417	-3.8342	19.8600 
1137.657	0.1772	0.2065	0.9746	8.6572	-0.4065	-3.5266	19.8600 
1137.681	0.1816	0.2202	0.9814	8.5089	-0.5658	-3.2465	19.8600 
1137.699	0.1460	0.1851	1.0044	8.3990	-0.6702	-2.9718	19.8700 
1137.700	0.1270	0.2017	1.0332	8.3276	-0.7031	-2.7246	19.8700 
1137.722	0.1797	0.2656	1.0117	8.3167	-0.7745	-2.3950	19.8700 
1137.737	0.2085	0.2266	0.9863	8.3221	-0.9503	-1.8567	19.8500 
1137.849	0.2031	0.1704	0.9668	8.3167	-1.0986	-1.3293	19.8700 
1137.866	0.1870	0.2354	0.9907	8.3551	-1.1041	-1.0327	19.8500 
1137.866	0.1963	0.2935	1.0244	8.4595	-1.0547	-0.7526	19.8500 
1137.866	0.2349	0.2314	1.0322	8.5583	-1.1261	-0.2307	19.8400 
1137.866	0.2427	0.1777	1.0205	8.6407	-1.2195	0.3296	19.8500 
1137.867	0.2495	0.2285	1.0303	8.7451	-1.2030	0.6866	19.8400 
1137.884	0.2212	0.2129	1.0425	8.8660	-1.1426	1.0327	19.8600 
1137.904	0.1943	0.1494	1.0840	8.9374	-1.0822	1.4832	19.8500 
1138.006	0.1909	0.1636	1.1504	9.0088	-0.9998	1.8622	19.8500 
1138.033	0.1904	0.2339	1.1812	9.1791	-0.9229	2.1423	19.8400 
1138.033	0.1772	0.2646	1.1616	9.4263	-0.8789	2.4280	19.8400 
1138.033	0.1860	0.2915	1.1685	9.6735	-0.8130	2.6257	19.8400 
1138.033	0.1299	0.2588	1.0454	9.9646	-0.7306	2.7301	19.8500 
1138.033	0.0479	0.1733	1.0015	10.2448	-0.5933	2.7631	19.8500 
1138.054	-0.0234	0.2388	1.0186	10.5469	-0.3845	2.6093	19.8200 
1138.078	-0.0405	0.2021	0.9565	10.7886	-0.2472	2.4390	19.8300 
1138.097	-0.0396	0.1797	0.9116	10.9094	-0.1923	2.1478	19.8200 
1138.098	-0.0483	0.2212	0.9697	11.0083	-0.0220	1.7249	19.8400 
1138.121	-0.1069	0.1680	1.0444	11.0742	0.2032	1.2579	19.8100 
1138.136	-0.1162	0.2134	1.0684	11.1237	0.5054	0.7141	19.8200 
1138.218	-0.0718	0.2871	1.0527	11.2006	0.7306	0.2582	19.8300 
1138.234	-0.0200	0.2622	1.0190	11.2445	0.8075	0.0275	19.8300 
1138.234	0.0166	0.2114	0.8862	11.2500	0.7745	-0.0439	19.8200 
1138.234	0.0078	0.2539	0.8604	11.2885	0.7855	-0.2142	19.8100 
1138.250	-0.0146	0.2529	0.8369	11.3544	0.8020	-0.4175	19.8200 
1138.275	-0.0186	0.2422	0.8682	11.3599	0.8459	-0.6042	19.8100 
1138.297	-0.0088	0.2925	0.9102	11.3324	0.9229	-0.8844	19.8000 
1138.297	0.0078	0.3154	0.8882	11.2994	0.9338	-1.1646	19.7900 
1138.318	-0.0068	0.2261	0.9019	11.1676	0.9283	-1.3898	19.7900 
1138.427	-0.0508	0.2349	0.9629	10.9863	1.0217	-1.8237	19.7900 
1138.449	-0.0781	0.2729	0.9883	10.8380	1.1371	-2.3071	19.7900 
1138.449	-0.0771	0.2139	0.9521	10.6842	1.1426	-2.5873	19.7900 
1138.449	-0.0552	0.2437	0.9399	10.5414	1.1151	-2.7960	19.8000 
1138.449	-0.0205	0.2803	0.9448	10.4370	1.0162	-2.8894	19.8000 
1138.449	-0.0068	0.2700	0.9136	10.3436	0.8459	-2.9114	19.8000 
1138.472	-0.0122	0.2930	0.9434	10.2832	0.7086	-2.9993	19.7900 
1138.497	-0.0225	0.3037	0.9932	10.2338	0.5878	-3.1476	19.7800 
1138.515	-0.0215	0.2935	1.0503	10.1733	0.4175	-3.3014	19.7900 
1138.515	-0.0327	0.2646	1.0757	10.1294	0.2197	-3.4607	19.7800 
1138.537	-0.0420	0.2959	1.0942	10.1294	0.0165	-3.6530	19.7800 
1138.636	-0.0244	0.3081	1.0850	10.1843	-0.2252	-3.7683	19.8000 
1138.648	0.0396	0.2720	1.1758	10.2338	-0.5273	-3.7354	19.7900 
1138.648	0.1055	0.2993	1.2588	10.2777	-0.8514	-3.5980	19.7800 
1138.650	0.1396	0.1992	1.1587	10.3601	-1.3184	-3.2465	19.8000 
1138.650	0.1299	0.1084	1.1724	10.4150	-1.6919	-2.8070	19.7800 
1138.664	0.1963	0.1782	1.0815	10.4645	-1.9336	-2.4609	19.7700 
1138.681	0.2578	0.1436	0.9937	10.5194	-2.2137	-2.0105	19.7800 
1138.702	0.3052	0.0029	1.0073	10.4590	-2.4335	-1.5326	19.7800 
1138.719	0.2290	-0.0234	1.1191	10.3491	-2.3895	-1.4337	19.7800 
1138.735	0.0840	0.0708	1.2808	10.2667	-2.1039	-1.8347	19.7900 
1138.752	0.0542	0.1382	1.2451	10.2393	-1.8237	-2.3181	19.7800 
1138.837	0.0854	0.1445	1.0112	10.2502	-1.7084	-2.5708	19.7800 
1138.861	0.1050	0.1104	0.9043	10.2612	-1.5930	-2.6093	19.7700 
1138.861	0.1450	0.1367	0.8242	10.2887	-1.4008	-2.6422	19.7600 
1138.861	0.1563	0.1489	0.7925	10.3491	-1.1591	-2.6807	19.7600 
1138.861	0.1489	0.1743	0.7759	10.4315	-0.9064	-2.7795	19.7600 
1138.878	0.1377	0.1953	0.7930	10.5359	-0.6482	-2.9498	19.7500 
1138.892	0.1069	0.1343	0.8574	10.5524	-0.3955	-3.0762	19.7700 
1138.913	0.0986	0.1392	0.9136	10.4865	-0.1208	-3.2629	19.7500 
1138.936	0.1025	0.1660	0.9565	10.4095	0.1373	-3.4552	19.7500 
1139.045	0.1187	0.1851	0.9834	10.3381	0.3571	-3.5596	19.7600 
1139.068	0.1401	0.1895	0.9849	10.2667	0.4944	-3.5596	19.7500 
1139.069	0.1587	0.2202	0.9785	10.2228	0.5823	-3.5541	19.7500 
1139.069	0.1348	0.2070	1.0103	10.2173	0.6866	-3.5266	19.7500 
1139.069	0.1187	0.1846	1.0313	10.2008	0.7745	-3.4552	19.7400 
1139.069	0.0952	0.2202	1.0723	10.2228	0.8679	-3.3838	19.7500 
1139.081	0.1128	0.2500	1.0869	10.2722	0.9009	-3.2684	19.7700 
1139.098	0.1958	0.3232	1.0410	10.3271	0.8569	-3.1146	19.7500 
1139.131	0.2319	0.3159	1.0371	10.3931	0.8075	-2.9059	19.7400 
1139.147	0.1890	0.1846	1.0156	10.4041	0.7800	-2.6367	19.7400 
1139.255	0.1143	0.1899	1.0273	10.4425	0.8624	-2.5653	19.7300 
1139.281	-0.0107	0.1802	1.2148	10.5469	1.1481	-2.6477	19.7400 
1139.281	-0.0151	0.3027	1.2109	10.7062	1.3074	-2.7850	19.7400 
1139.281	-0.0024	0.2935	1.1406	10.9479	1.2854	-2.7081	19.7300 
1139.281	-0.0850	0.0239	1.0122	11.0852	1.2305	-2.5653	19.7400 
1139.281	-0.1367	0.0884	0.9844	11.1401	1.5326	-3.0267	19.7200 
1139.281	-0.2529	0.1353	1.2241	11.1511	2.0380	-3.4662	19.7300 
1139.298	-0.2891	0.0029	1.2056	11.0248	2.2632	-3.6090	19.7400 
1139.313	-0.1343	0.3179	1.2524	10.8820	2.4554	-3.8123	19.7100 
1139.333	-0.0396	0.3076	1.1689	10.8160	2.2687	-3.4827	19.7300 
1139.354	0.0249	0.0596	0.9263	10.6348	1.9061	-2.8290	19.7300 
1139.465	0.0415	0.2070	0.8970	10.4919	1.8347	-2.6202	19.7200 
1139.482	0.0137	0.1621	0.7695	10.4260	1.6864	-2.3346	19.7300 
1139.482	-0.0386	0.0425	0.7241	10.1953	1.5326	-2.0874	19.7200 
1139.482	-0.0591	0.2461	0.8281	10.0470	1.5491	-2.2247	19.7200 
1139.482	-0.0273	0.2607	0.8247	9.9756	1.4172	-2.1423	19.7000 
1139.482	-0.0034	0.1025	0.8291	9.7943	1.1536	-1.8127	19.7100 
1139.514	0.0229	0.2202	0.8716	9.6405	1.0327	-1.7578	19.6900 
1139.529	0.0288	0.2681	0.9312	9.5636	0.9503	-1.7358	19.7000 
1139.529	0.0137	0.1777	0.9370	9.4373	0.8295	-1.6479	19.7000 
1139.546	-0.0137	0.2480	0.9487	9.3494	0.8514	-1.8677	19.7000 
1139.566	-0.0376	0.2856	0.9561	9.3274	0.9338	-2.1918	19.7000 
1139.674	-0.0659	0.2153	0.9819	9.3054	0.9943	-2.4170	19.7000 
1139.703	-0.0806	0.1992	1.0337	9.2670	1.0602	-2.6917	19.7100 
1139.703	-0.0464	0.3506	1.0996	9.3219	1.0822	-3.1036	19.7100 
1139.704	0.0122	0.3662	1.0693	9.4427	0.9338	-3.3618	19.7100 
1139.704	0.0313	0.2578	1.0059	9.5691	0.6976	-3.4772	19.7100 
1139.704	-0.0083	0.2573	1.0195	9.7009	0.5823	-3.7463	19.7000 
1139.731	-0.0161	0.3149	1.1333	9.8657	0.5658	-4.1473	19.6800 
1139.824	0.0498	0.3242	1.2563	10.0195	0.4779	-4.4055	19.6900 
1139.845	0.1714	0.2271	1.1958	10.1898	0.1868	-4.3835	19.6900 
1139.845	0.1743	0.0703	1.1602	10.3107	-0.1263	-4.2188	19.7000 
1139.845	0.2407	0.1431	1.1865	10.3436	-0.2197	-4.2902	19.6900 
1139.845	0.2676	0.1084	1.1543	10.3491	-0.3241	-4.3835	19.6800 
1139.845	0.1924	-0.1313	1.0928	10.1733	-0.4395	-4.4165	19.6900 
1139.846	0.0664	-0.1138	1.2358	9.9207	-0.1703	-5.0372	19.6900 
1139.869	-0.0400	0.1431	1.3198	9.8218	0.2802	-6.1249	19.6800 
1139.887	-0.0259	0.1772	1.1235	9.8657	0.4999	-6.9104	19.6900 
1139.907	0.0225	0.0903	0.8618	9.9097	0.5658	-7.3059	19.6900 
1139.935	0.0303	0.0518	0.7866	9.8877	0.7141	-7.6080	19.6900 
1140.043	0.0361	0.0728	0.8096	9.8492	1.0382	-7.9761	19.6900 
1140.065	0.0503	0.1035	0.8521	9.8383	1.3678	-8.3112	19.6900 
1140.065	0.0669	0.0864	0.8228	9.8218	1.5271	-8.4595	19.6700 
1140.065	0.0693	0.0864	0.8394	9.7614	1.6040	-8.5034	19.6700 
1140.066	0.0874	0.1045	0.9336	9.6405	1.6370	-8.4760	19.6500 
1140.066	0.0815	0.0542	0.9429	9.4537	1.6150	-8.3331	19.6600 
1140.066	0.0737	0.0996	0.9746	9.2999	1.6040	-8.1793	19.6800 
1140.083	0.0786	0.1699	0.9746	9.2450	1.6205	-8.0420	19.6600 
1140.106	0.1045	0.2070	0.9585	9.2780	1.5656	-7.7344	19.6700 
1140.134	0.1143	0.1982	0.9712	9.3329	1.4722	-7.2729	19.6700 
1140.159	0.0991	0.1709	0.9761	9.4043	1.3733	-6.7401	19.6700 
1140.290	0.0913	0.2031	1.0127	9.5142	1.3348	-6.2512	19.6600 
1140.290	0.0859	0.2119	1.0200	9.6790	1.3019	-5.6854	19.6700 
1140.297	0.1226	0.2798	1.0605	9.8328	1.3074	-5.1086	19.6600 
1140.297	0.1812	0.3569	1.0381	10.0305	1.2909	-4.5099	19.6600 
1140.297	0.2188	0.2876	1.0059	10.1953	1.2415	-3.7628	19.6700 
1140.297	0.1670	0.1743	0.9443	10.3217	1.1920	-3.0322	19.6700 
1140.297	0.0112	0.1592	0.9912	10.5524	1.3513	-2.6367	19.6700 
1140.322	-0.0806	0.2168	1.1450	10.9644	1.5820	-2.3291	19.6700 
1140.345	-0.0625	0.2632	1.2021	11.3434	1.5546	-1.7413	19.6700 
1140.359	-0.0127	0.2573	1.1064	11.7004	1.2854	-0.9613	19.6600 
1140.385	-0.0156	0.1611	1.1504	11.9147	1.1481	-0.3680	19.6500 
1140.489	-0.0303	0.2896	1.0498	12.0850	1.2524	-0.2087	19.6600 
1140.497	-0.1807	0.1025	1.1890	12.1674	1.5381	0.0275	19.6600 
1140.497	-0.2661	-0.0024	1.2578	12.1234	1.8457	0.1703	19.6600 
1140.497	-0.1284	0.4028	1.3184	12.1014	2.1094	0.1428	19.6500 
1140.497	0.0005	0.3760	1.1904	12.1124	1.8896	0.7855	19.6700 
1140.497	0.1216	0.1309	0.8887	11.9916	1.3293	1.9830	19.6600 
1140.527	0.1411	0.2446	0.8154	11.8652	1.0382	2.7850	19.6400 
1140.544	0.0894	0.2583	0.7236	11.7883	0.8514	3.3344	19.6500 
1140.544	0.0444	0.1738	0.7222	11.5961	0.6976	3.7793	19.6600 
1140.565	0.0229	0.2588	0.7261	11.3983	0.6262	3.8727	19.6500 
1140.580	0.0176	0.2798	0.7822	11.2445	0.5658	3.9606	19.6600 
1140.687	0.0161	0.1636	0.8096	11.0028	0.4175	4.1968	19.6400 
1140.720	0.0127	0.1646	0.8896	10.7227	0.3406	4.2957	19.6400 
1140.720	0.0259	0.2451	0.9604	10.5084	0.3021	4.1583	19.6400 
1140.720	0.0396	0.2817	0.9561	10.4041	0.2252	3.9441	19.6400 
1140.721	0.0327	0.2993	0.9326	10.3656	0.1428	3.7573	19.6400 
1140.721	0.0176	0.2813	0.9463	10.3162	0.1099	3.5870	19.6500 
1140.741	0.0029	0.2949	0.9834	10.2502	0.1044	3.3673	19.6400 
1140.847	-0.0044	0.2905	1.0420	10.1678	0.0934	3.1146	19.6300 
1140.881	0.0137	0.2808	1.0747	10.1019	0.0110	2.8784	19.6300 
1140.882	0.0317	0.2993	1.0737	10.1019	-0.1154	2.6147	19.6400 
1140.882	0.0254	0.3022	1.0493	10.1514	-0.2637	2.3785	19.6400 
1140.882	0.0278	0.3237	1.0361	10.2283	-0.3735	2.1423	19.6400 
1140.882	0.0962	0.3564	1.1577	10.3052	-0.4889	1.9171	19.6500 
1140.882	0.2021	0.3408	1.2417	10.3491	-0.7031	1.7633	19.6500 
1140.882	0.2104	0.1763	1.1499	10.4041	-1.0767	1.7029	19.6300 
1140.902	0.2178	0.1494	1.2065	10.4205	-1.2689	1.5216	19.6100 
1140.918	0.2461	0.0889	1.2603	10.3986	-1.3568	1.3843	19.6200 
1140.939	0.2534	-0.0527	1.1587	10.2502	-1.5491	1.5161	19.6200 
1140.965	0.2085	-0.0654	1.1050	10.0415	-1.5820	1.2744	19.6200 
1140.980	0.0918	0.0195	1.2637	9.9097	-1.2579	0.4395	19.6200 
1140.998	-0.0264	0.0186	1.2827	9.8163	-0.8350	-0.5493	19.6100 
1141.019	-0.0215	0.1167	1.1748	9.7833	-0.4395	-1.5656	19.6000 
1141.128	0.0459	0.1865	0.9233	9.8767	-0.1593	-2.3566	19.6100 
1141.137	0.0703	0.0840	0.7368	9.9591	0.0220	-2.7905	19.5900 
1141.137	0.0669	0.0327	0.7227	9.9152	0.3955	-3.2190	19.5800 
1141.137	0.0620	0.1084	0.8003	9.8547	0.8954	-3.8452	19.6000 
1141.137	0.0615	0.0996	0.8140	9.7998	1.2909	-4.3890	19.5900 
1141.137	0.0698	0.0708	0.7915	9.7339	1.5601	-4.8120	19.5900 
1141.157	0.0835	0.0869	0.8413	9.6515	1.8018	-5.1855	19.5700 
1141.181	0.1030	0.1152	0.8896	9.5471	1.9556	-5.5096	19.5500 
1141.198	0.1035	0.1240	0.9121	9.4098	2.0599	-5.7678	19.5700 
1141.216	0.0762	0.1602	0.9902	9.3109	2.1588	-5.9601	19.5600 
1141.236	0.0913	0.2109	0.9961	9.2780	2.1753	-6.0425	19.5500 
1141.256	0.1060	0.1904	1.0034	9.2944	2.1368	-5.9216	19.5500 
1141.374	0.1040	0.1948	1.0298	9.3384	2.1204	-5.7404	19.5500 
1141.385	0.0918	0.2339	1.0508	9.4318	2.1588	-5.5701	19.5400 
1141.385	0.0732	0.2285	1.0645	9.5581	2.2247	-5.3229	19.5300 
1141.385	0.0913	0.2749	1.0581	9.7009	2.3126	-5.0537	19.5500 
1141.385	0.1333	0.3589	1.0454	9.8712	2.4060	-4.7736	19.5500 
1141.385	0.1870	0.2954	0.9980	10.0305	2.4115	-4.3231	19.5500 
1141.398	0.1260	0.1675	0.9302	10.1569	2.4005	-3.8782	19.5400 
1141.415	-0.0420	0.1709	1.0010	10.3711	2.6202	-3.7903	19.5400 
1141.530	-0.1528	0.1680	1.2446	10.6732	2.9224	-3.7024	19.5500 
1141.550	-0.0762	0.3232	1.0708	11.0248	2.8564	-3.4552	19.5300 
1141.550	-0.1138	0.1401	1.0527	11.3434	2.6312	-2.9388	19.5300 
1141.550	-0.1997	0.0356	1.1489	11.4258	2.7026	-2.8510	19.5400 
1141.550	-0.2100	0.3081	1.2329	11.4862	3.0597	-3.2135	19.5400 
1141.550	-0.2266	0.1987	1.3525	11.5082	3.2135	-2.9883	19.5300 
1141.564	-0.1597	0.1221	1.3125	11.3818	3.1146	-2.4829	19.5200 
1141.587	-0.0171	0.2905	1.2368	11.2280	2.8894	-2.0160	19.5500 
1141.602	0.0327	0.2417	1.0474	11.0907	2.4554	-1.3019	19.5300 
1141.615	0.0586	0.1660	0.8066	10.9204	1.9940	-0.4944	19.5200 
1141.634	0.0542	0.1890	0.7163	10.7776	1.6479	0.1483	19.5100 
1141.744	0.0015	0.1621	0.6504	10.6018	1.3953	0.6372	19.5100 
1141.773	-0.0122	0.1904	0.6929	10.4095	1.2305	0.9338	19.5100 
1141.773	0.0063	0.2188	0.7446	10.2063	1.0712	1.1920	19.5000 
1141.773	0.0229	0.1943	0.7930	9.9371	0.8899	1.4886	19.5100 
1141.774	0.0386	0.1802	0.8481	9.6405	0.7031	1.6864	19.5100 
1141.774	0.0317	0.1777	0.9058	9.3494	0.5878	1.7084	19.5100 
1141.797	0.0176	0.2554	0.9619	9.1132	0.5713	1.5326	19.4900 
1141.798	0.0112	0.3086	0.9839	8.9813	0.5823	1.3568	19.4900 
1141.910	-0.0020	0.2573	0.9731	8.8824	0.5548	1.4172	19.4900 
1141.932	-0.0005	0.2720	0.9956	8.7726	0.5219	1.4996	19.5000 
1141.932	0.0161	0.3467	1.0889	8.6847	0.4779	1.5216	19.5200 
1141.932	0.0518	0.3247	1.0786	8.6023	0.3131	1.6205	19.4900 
1141.932	0.0845	0.2910	1.0649	8.5254	0.0989	1.7249	19.5100 
1141.932	0.0430	0.2402	1.0718	8.4979	-0.0439	1.7853	19.4900 
1141.954	-0.0298	0.3052	1.1240	8.5419	-0.0439	1.7194	19.4900 
1141.972	-0.0083	0.3481	1.1606	8.6133	-0.0275	1.6974	19.5000 
1141.996	0.1035	0.2480	1.2100	8.6462	-0.1868	1.9775	19.5000 
1141.996	0.1694	0.2339	1.2007	8.6682	-0.4010	2.3346	19.5000 
1142.017	0.1953	0.2046	1.1885	8.6957	-0.5823	2.6971	19.4900 
1142.116	0.2046	0.0981	1.2109	8.6462	-0.7031	3.2629	19.5000 
1142.131	0.1899	-0.0269	1.1011	8.4979	-0.8569	4.0045	19.5000 
1142.131	0.1772	-0.0732	1.0942	8.2782	-0.7910	4.2792	19.5100 
1142.131	0.1523	0.0020	1.2056	8.0914	-0.4724	3.9825	19.4900 
1142.132	0.0234	-0.0664	1.2275	7.9871	-0.1263	3.5046	19.4900 
1142.149	-0.0508	0.0308	1.2729	7.9761	0.3571	2.7246	19.5100 
1142.172	-0.0288	0.1870	1.1040	8.0420	0.7196	2.0874	19.4900 
1142.195	0.0024	0.0542	0.9390	8.0475	0.8844	1.9501	19.4800 
1142.212	0.0605	0.0679	0.8291	8.0475	1.1536	1.7578	19.5100 
1142.313	0.1055	0.1660	0.7588	8.1793	1.4557	1.4832	19.4900 
1142.313	0.1069	0.0537	0.6895	8.2507	1.6644	1.4117	19.5000 
1142.332	0.0981	0.0732	0.7588	8.2507	1.9611	1.1316	19.5100 
1142.332	0.0664	0.1143	0.8408	8.2507	2.2961	0.7086	19.5000 
1142.332	0.0474	0.0703	0.8955	8.2013	2.5378	0.4504	19.4900 
1142.332	0.0527	0.0669	0.9199	8.0914	2.6532	0.2692	19.4900 
1142.332	0.0840	0.1704	0.9346	8.0530	2.7191	0.0714	19.4800 
1142.349	0.1284	0.2095	1.0259	8.0859	2.7081	0.1208	19.4900 
1142.371	0.1484	0.1499	0.9868	8.1354	2.5818	0.3625	19.4800 
1142.402	0.1235	0.2090	0.9946	8.2672	2.5543	0.4669	19.4700 
1142.417	0.0947	0.2285	1.0083	8.4814	2.6038	0.5658	19.4900 
1142.526	0.0493	0.1460	1.0288	8.6737	2.6477	0.8185	19.4800 
1142.555	0.0718	0.2520	1.0586	8.8770	2.7631	0.9503	19.4900 
1142.555	0.1553	0.3770	1.0103	9.1571	2.8345	1.1151	19.4800 
1142.555	0.1860	0.2358	0.9316	9.3878	2.7795	1.5820	19.4800 
1142.555	0.0420	0.0400	0.9160	9.5581	2.8345	1.9830	19.4700 
1142.555	-0.1226	0.0566	1.0571	9.8438	3.1805	1.9940	19.4700 
1142.571	-0.1978	0.2324	1.3291	10.2393	3.5486	1.9556	19.4600 
1142.571	-0.1167	0.3311	1.2480	10.6567	3.5156	2.1973	19.4800 
1142.591	-0.1543	0.0562	1.2549	10.9259	3.3673	2.7191	19.4900 
1142.616	-0.1694	0.2227	1.1558	11.1182	3.5266	2.6587	19.4700 
1142.632	-0.2461	0.2373	1.2720	11.3049	3.9386	2.6532	19.4700 
1142.648	-0.2905	0.0278	1.2900	11.2775	4.1748	3.0377	19.4800 
1142.749	-0.1270	0.2891	1.3364	11.1566	4.3176	3.2465	19.4700 
1142.766	-0.0254	0.2910	1.1367	11.0962	4.0814	3.7683	19.4600 
1142.766	0.0317	0.1641	0.8213	11.0083	3.6090	4.5868	19.4600 
1142.766	0.0381	0.2339	0.7759	10.9369	3.3069	5.2020	19.4600 
1142.766	-0.0137	0.0986	0.6948	10.8160	3.0322	5.7678	19.4500 
1142.789	-0.0313	0.0752	0.6973	10.5743	2.8290	6.1359	19.4600 
1142.809	-0.0171	0.2412	0.7285	10.4205	2.7740	6.0205	19.4600 
1142.824	-0.0054	0.2944	0.7729	10.3491	2.7081	5.8667	19.4500 
1142.848	0.0049	0.1875	0.7881	10.2118	2.5269	5.8887	19.4600 
1142.848	-0.0020	0.2031	0.8604	10.0031	2.4005	5.7788	19.4600 
1142.958	-0.0278	0.2349	0.9312	9.8383	2.3456	5.4382	19.4600 
1142.985	-0.0459	0.2251	0.9131	9.7174	2.2687	5.0922	19.4700 
1142.985	-0.0430	0.2607	0.9136	9.6625	2.2247	4.7406	19.4400 
1142.985	-0.0278	0.2827	0.9634	9.6405	2.1698	4.4110	19.4500 
1142.985	-0.0146	0.3120	0.9893	9.6405	2.0380	4.1528	19.4300 
1142.986	0.0254	0.3521	1.0366	9.6680	1.8347	3.9825	19.4400 
1143.008	0.0361	0.2974	1.0674	9.6954	1.5656	3.9441	19.4500 
1143.120	0.0195	0.2969	1.0879	9.7449	1.3239	3.8068	19.4500 
1143.146	-0.0156	0.3457	1.1016	9.8767	1.1536	3.6090	19.4500 
1143.147	0.0283	0.3467	1.0181	10.0031	0.9064	3.5266	19.4500 
1143.147	0.0898	0.3696	0.9990	10.1459	0.6262	3.4058	19.4500 
1143.147	0.1924	0.3579	1.0889	10.3052	0.2966	3.2080	19.4400 
1143.147	0.2134	0.2485	1.0571	10.4810	-0.1263	3.0432	19.4400 
1143.147	0.1807	0.1333	1.1421	10.6238	-0.3680	2.7356	19.4400 
1143.147	0.1836	0.0718	1.3872	10.6018	-0.3680	2.6038	19.4400 
1143.167	0.2070	-0.0640	1.3794	10.4260	-0.5383	2.8125	19.4400 
1143.192	0.1646	-0.0674	1.3159	10.2393	-0.7086	2.6697	19.4400 
1143.205	0.0605	-0.0010	1.3882	10.1019	-0.6427	2.1368	19.4300 
1143.231	-0.0674	0.0132	1.3735	9.9866	-0.3790	1.4557	19.4300 
1143.245	0.0039	0.3003	1.1006	10.0415	-0.1044	0.6097	19.4300 
1143.344	0.0693	0.2842	0.8530	10.2173	0.0000	0.1648	19.4300 
1143.364	0.0991	0.0459	0.5469	10.2612	0.0330	0.1373	19.4200 
1143.364	0.0654	0.0557	0.6382	10.1514	0.4395	-0.1648	19.4200 
1143.364	0.0254	0.1338	0.7720	10.0470	1.0217	-0.7635	19.4300 
1143.364	0.0068	0.0356	0.7813	9.8712	1.4282	-1.1426	19.4300 
1143.380	0.0229	0.0806	0.8301	9.6899	1.7633	-1.4886	19.4200 
1143.396	0.0430	0.1196	0.9082	9.5581	2.0380	-1.7194	19.4200 
1143.417	0.0889	0.0981	0.9453	9.4098	2.1588	-1.7194	19.4100 
1143.441	0.1182	0.1504	0.9873	9.2560	2.2357	-1.7249	19.4200 
1143.459	0.1460	0.2759	1.0293	9.2065	2.2906	-1.7798	19.4200 
1143.547	0.1348	0.2065	1.0176	9.2340	2.2467	-1.5875	19.4200 
1143.564	0.0894	0.1616	0.9888	9.2834	2.2192	-1.3403	19.4100 
1143.564	0.0444	0.2358	1.0391	9.4263	2.3346	-1.2415	19.4000 
1143.564	0.0474	0.2759	1.0938	9.6240	2.4335	-1.0162	19.4000 
1143.564	0.1270	0.3413	1.0474	9.8053	2.4445	-0.6592	19.3900 
1143.564	0.2363	0.3164	0.9712	9.9921	2.3950	-0.1593	19.4000 
1143.583	0.2021	0.1772	0.9072	10.1459	2.3785	0.3680	19.4000 
1143.607	-0.0693	0.0562	1.1372	10.3107	2.6752	0.6042	19.4100 
1143.629	-0.1899	0.2021	1.3618	10.5798	3.2190	0.3955	19.4000 
1143.648	-0.1484	0.3823	1.1406	10.9644	3.4277	0.2911	19.3900 
1143.766	-0.1680	0.0767	1.0845	11.2225	3.4058	0.6866	19.4000 
1143.782	-0.2036	0.2144	1.1187	11.2061	3.7408	0.5438	19.3900 
1143.782	-0.1953	0.3481	1.2715	11.2170	4.2352	0.2197	19.3800 
1143.782	-0.2134	-0.0215	1.2993	11.1072	4.3506	0.6097	19.4000 
1143.782	-0.1294	0.1455	1.1953	10.9259	4.3616	0.7526	19.4000 
1143.782	-0.0273	0.3745	1.0713	10.9314	4.3121	0.8899	19.3900 
1143.807	0.0015	0.1509	0.8887	10.9314	3.9001	1.6589	19.3900 
1143.824	0.0303	0.1724	0.6953	10.8215	3.5541	2.3181	19.3700 
1143.824	0.0142	0.2363	0.7197	10.7501	3.3948	2.6477	19.3800 
1143.848	0.0107	0.1563	0.6978	10.5908	3.1970	2.9553	19.3600 
1143.865	0.0029	0.1563	0.7427	10.3656	3.0267	3.0981	19.3600 
1143.880	-0.0063	0.2129	0.7905	10.1733	2.9553	2.9388	19.3600 
1143.980	-0.0083	0.2358	0.8438	9.9921	2.8729	2.6642	19.3600 
1143.998	-0.0166	0.2236	0.8687	9.7943	2.7905	2.3621	19.3600 
1143.998	-0.0532	0.2007	0.9414	9.6240	2.7850	2.0325	19.3500 
1143.998	-0.0669	0.2549	0.9517	9.5581	2.8235	1.5930	19.3500 
1143.999	-0.0747	0.2974	0.9961	9.5636	2.8510	1.1975	19.3700 
1144.018	-0.0757	0.2891	0.9990	9.5691	2.8235	0.8459	19.3600 
1144.046	-0.0503	0.3506	0.9937	9.5911	2.7740	0.4230	19.3400 
1144.057	-0.0405	0.3477	1.0088	9.6240	2.6752	0.0879	19.3500 
1144.071	-0.0645	0.2393	1.0532	9.6240	2.5378	-0.0879	19.3600 
1144.184	-0.0742	0.2700	1.0522	9.6460	2.3950	-0.3076	19.3500 
1144.190	-0.0615	0.2852	1.0864	9.7064	2.2137	-0.3955	19.3500 
1144.190	0.0195	0.2793	1.2041	9.7284	1.9830	-0.3406	19.3500 
1144.190	0.1753	0.2642	1.2202	9.7998	1.5765	-0.0824	19.3400 
1144.190	0.2139	0.1514	1.2090	9.8602	1.1096	0.3351	19.3400 
1144.190	0.2451	0.0898	1.2856	9.7778	0.8295	0.8295	19.3500 
1144.218	0.2632	0.0293	1.2378	9.6240	0.5823	1.3513	19.3300 
1144.243	0.1880	-0.1011	1.1719	9.3988	0.4614	1.5326	19.3400 
1144.243	0.0503	-0.1182	1.2734	9.1901	0.6757	1.1646	19.3300 
1144.259	-0.0859	0.1055	1.3696	9.1077	1.1646	0.2142	19.3100 
1144.278	-0.0503	0.2456	1.1758	9.1571	1.4722	-0.5768	19.3300 
1144.379	0.0386	0.1714	0.8560	9.2560	1.5546	-0.7635	19.3200 
1144.397	0.0698	0.0161	0.6826	9.2340	1.6370	-0.6427	19.3300 
1144.397	0.0708	0.0591	0.7344	9.1132	1.9885	-0.7526	19.3100 
1144.397	0.0547	0.1470	0.8208	9.0692	2.4994	-1.2140	19.3000 
1144.397	0.0498	0.0762	0.8374	9.0308	2.8674	-1.5216	19.3000 
1144.414	0.0610	0.0620	0.8223	8.9703	3.1201	-1.7578	19.2800 
1144.438	0.0459	0.1216	0.8394	8.9429	3.3563	-2.0819	19.2800 
1144.461	0.0298	0.1196	0.9131	8.8879	3.5541	-2.3071	19.2700 
1144.461	0.0327	0.1362	0.9614	8.7946	3.6310	-2.4170	19.2800 
1144.482	0.0498	0.1968	0.9697	8.7671	3.6475	-2.5049	19.2700 
1144.593	0.0767	0.2280	0.9717	8.8110	3.5925	-2.4609	19.2500 
1144.617	0.0796	0.2026	0.9834	8.8770	3.5046	-2.2632	19.2500 
1144.617	0.0464	0.1929	1.0293	8.9703	3.4607	-2.0380	19.2500 
1144.617	0.0107	0.1924	1.0767	9.0967	3.4882	-1.8018	19.2500 
1144.618	0.0708	0.3081	1.0552	9.2505	3.5266	-1.5656	19.2500 
1144.618	0.1514	0.3872	1.0176	9.4812	3.5211	-1.2854	19.2500 
1144.639	0.2007	0.2437	0.9424	9.6844	3.4113	-0.7745	19.2300 
1144.658	0.0693	0.0762	1.0327	9.8163	3.3673	-0.2911	19.2300 
1144.659	-0.1582	0.1416	1.3647	9.9426	3.6969	-0.3790	19.2200 
1144.684	-0.1382	0.3960	1.2441	10.1788	3.9441	-0.7251	19.2200 
1144.700	-0.1821	0.1128	1.0356	10.4315	3.8672	-0.5768	19.2200 
1144.716	-0.1768	0.0581	0.9790	10.4974	3.8672	-0.4834	19.1900 
1144.831	-0.2046	0.1704	1.1885	10.5304	4.1034	-0.5164	19.2000 
1144.846	-0.2349	-0.0239	1.2534	10.4480	4.1199	-0.2087	19.2100 
1144.846	-0.1875	0.1235	1.2827	10.2942	4.0924	-0.1154	19.2100 
1144.846	-0.0518	0.3726	1.2129	10.3217	3.8947	0.1758	19.2000 
1144.846	0.0151	0.1602	1.0493	10.3052	3.3838	1.1426	19.1900 
1144.847	0.0498	0.1655	0.8965	10.1624	3.1146	1.8677	19.1900 
1144.865	0.0459	0.2725	0.8027	10.1019	3.0267	2.2247	19.1700 
1144.887	0.0298	0.1699	0.7114	9.9921	2.8949	2.6477	19.1700 
1144.976	-0.0049	0.1279	0.6860	9.8273	2.7905	2.8400	19.1700 
1144.995	-0.0303	0.2598	0.7451	9.7229	2.8235	2.6971	19.1600 
1144.995	-0.0322	0.2739	0.8037	9.6130	2.8235	2.6752	19.1500 
1144.996	-0.0386	0.0913	0.8535	9.3494	2.7246	2.8564	19.1500 
1144.996	-0.0493	0.1196	0.9282	9.0582	2.7686	2.7740	19.1600 
1144.996	-0.0493	0.2544	0.9780	8.9319	2.8564	2.4884	19.1500 
1145.016	-0.0347	0.2896	0.9731	8.9044	2.8839	2.2632	19.1500 
1145.037	-0.0332	0.2729	0.9702	8.8934	2.8894	2.1423	19.1500 
1145.057	-0.0376	0.2827	1.0078	8.8989	2.9169	1.9446	19.1300 
1145.077	-0.0142	0.3330	1.0459	8.9264	2.9114	1.6205	19.1400 
1145.097	-0.0127	0.3145	1.0239	8.9813	2.8180	1.3788	19.1600 
1145.113	-0.0605	0.2671	1.0015	9.0692	2.7081	1.2030	19.1500 
1145.133	-0.0879	0.3218	1.0386	9.1956	2.6422	1.0327	19.1300 
1145.251	-0.0435	0.3164	1.1206	9.3274	2.4774	1.0492	19.1300 
1145.266	0.0449	0.3262	1.2295	9.4427	2.2192	1.1536	19.1300 
1145.266	0.1875	0.3066	1.2319	9.5966	1.7963	1.3623	19.1300 
1145.266	0.1997	0.1353	1.1685	9.7339	1.3403	1.6919	19.1300 
1145.266	0.1904	0.0679	1.2310	9.7723	1.1261	1.9830	19.1200 
1145.266	0.1582	0.0015	1.2290	9.7119	1.0052	2.2961	19.1100 
1145.281	0.1426	-0.0693	1.1885	9.5087	0.9009	2.4335	19.1300 
1145.299	0.1089	-0.0225	1.3037	9.2944	0.9668	2.1863	19.1100 
1145.394	-0.0063	0.0166	1.3169	9.1736	1.0876	1.7029	19.0900 
1145.413	-0.0313	0.1460	1.1543	9.2285	1.2250	1.0437	19.1000 
1145.413	0.0059	0.2012	0.8867	9.4098	1.3129	0.5438	19.1100 
1145.413	0.0200	0.0908	0.7173	9.5087	1.3678	0.3406	19.0900 
1145.413	0.0078	-0.0029	0.7769	9.4482	1.6260	0.0879	19.1000 
1145.413	0.0200	0.0654	0.8423	9.3274	2.0105	-0.3790	19.0900 
1145.433	0.0244	0.0913	0.8608	9.2505	2.2906	-0.7910	19.0900 
1145.454	0.0503	0.0752	0.8379	9.1571	2.4554	-1.0327	19.0800 
1145.475	0.1001	0.1089	0.8804	9.0472	2.6093	-1.2030	19.0800 
1145.494	0.0884	0.0918	0.9277	8.8989	2.7521	-1.3458	19.0800 
1145.589	0.0859	0.1353	0.9282	8.7671	2.8894	-1.5985	19.0800 
1145.612	0.0854	0.2236	0.9580	8.7396	3.0707	-1.9116	19.0800 
1145.612	0.0845	0.2314	0.9375	8.8055	3.1586	-2.0105	19.0600 
1145.612	0.0684	0.1675	0.9287	8.8879	3.1586	-1.9116	19.0600 
1145.612	0.0513	0.2422	0.9731	9.0033	3.2025	-1.8622	19.0500 
1145.612	0.0464	0.2666	1.0000	9.1626	3.2794	-1.7688	19.0600 
1145.633	0.0400	0.1904	1.0117	9.3219	3.2739	-1.4777	19.0500 
1145.653	0.0728	0.2969	1.0220	9.5142	3.3179	-1.2744	19.0600 
1145.672	0.1855	0.4092	0.9619	9.8053	3.3289	-1.0602	19.0700 
1145.695	0.2192	0.2935	0.9419	10.0745	3.2410	-0.6537	19.0500 
1145.795	0.1387	0.1587	0.9229	10.2502	3.2300	-0.3186	19.0400 
1145.813	-0.0938	0.1650	1.0898	10.4645	3.5266	-0.4010	19.0300 
1145.813	-0.2373	0.1572	1.4136	10.7446	3.9551	-0.4834	19.0200 
1145.813	-0.1152	0.4019	1.2739	11.1127	3.9551	-0.4559	19.0200 
1145.813	-0.0884	0.3052	1.1772	11.4807	3.7079	-0.0220	19.0300 
1145.814	-0.1157	0.0737	0.9863	11.5741	3.5815	0.2527	19.0300 
1145.836	-0.1943	0.1167	1.0659	11.5247	3.9496	-0.0055	19.0100 
1145.852	-0.3174	0.0435	1.2305	11.4093	4.3231	-0.2252	19.0100 
1145.872	-0.2563	0.1514	1.2798	11.2170	4.5099	-0.3790	19.0100 
1145.893	-0.1089	0.2583	1.2051	11.1182	4.3286	-0.0934	19.0100 
1145.913	-0.0415	0.1689	1.0176	11.0303	3.8507	0.5658	19.0100 
1145.935	0.0146	0.2603	0.8940	10.9369	3.5101	1.1151	19.0000 
1145.949	0.0195	0.1914	0.8311	10.7941	3.1915	1.7194	19.0000 
1146.062	0.0000	0.0898	0.7480	10.5194	2.9443	2.1918	18.9900 
1146.082	-0.0059	0.1826	0.7583	10.2997	2.8290	2.3291	18.9900 
1146.082	-0.0117	0.2803	0.7808	10.1843	2.6917	2.4060	18.9700 
1146.082	-0.0146	0.2046	0.7495	10.0195	2.4445	2.6642	18.9700 
1146.082	-0.0083	0.1895	0.8237	9.7559	2.2742	2.8180	18.9700 
1146.082	-0.0161	0.2168	0.9058	9.5361	2.1698	2.8455	18.9700 
1146.100	-0.0234	0.1997	0.9072	9.3604	2.0325	2.8345	18.9800 
1146.213	-0.0288	0.2129	0.9312	9.2175	1.9171	2.7246	18.9500 
1146.230	-0.0430	0.3091	0.9736	9.1406	1.8457	2.5104	18.9800 
1146.230	-0.0430	0.3218	0.9990	9.0912	1.7413	2.3950	18.9500 
1146.230	0.0000	0.3062	1.0474	9.0198	1.5436	2.3785	18.9600 
1146.230	0.0239	0.3174	1.0967	8.9758	1.3129	2.3291	18.9600 
1146.235	0.0068	0.2729	1.0889	9.0033	1.0547	2.2467	18.9500 
1146.235	-0.0259	0.2690	1.0615	9.1296	0.8569	2.1094	18.9400 
1146.246	-0.0625	0.3291	1.0591	9.3384	0.7416	1.9995	18.9400 
1146.265	-0.0083	0.3589	1.1167	9.5306	0.5823	2.0050	18.9400 
1146.286	0.1338	0.3247	1.2681	9.6735	0.2966	2.2083	18.9400 
1146.306	0.1938	0.2783	1.1802	9.8492	-0.1373	2.5104	18.9300 
1146.413	0.2144	0.2017	1.0894	9.9976	-0.4449	2.7466	18.9300 
1146.435	0.2417	0.1738	1.1611	10.0140	-0.5273	3.0048	18.9500 
1146.435	0.2295	-0.0825	1.2168	9.8273	-0.6372	3.6310	18.9300 
1146.435	0.1968	-0.1797	1.1777	9.4922	-0.7196	4.1473	18.9300 
1146.435	0.0571	-0.0562	1.3057	9.2560	-0.4889	3.8617	18.9300 
1146.435	-0.0571	0.0249	1.3760	9.1406	-0.0330	3.1970	18.9200 
1146.468	-0.0493	0.1631	1.1748	9.1077	0.2747	2.5928	18.9200 
1146.486	0.0415	0.2529	0.9312	9.1626	0.3900	2.2247	18.9100 
1146.486	0.0986	0.0635	0.6709	9.1901	0.3735	2.4005	18.9100 
1146.508	0.0928	-0.0249	0.6445	9.0692	0.4504	2.6642	18.9000 
1146.528	0.0669	0.1274	0.7573	8.9539	0.8459	2.3730	18.9000 
1146.628	0.0679	0.1309	0.7954	8.9209	1.1920	1.9775	18.9000 
1146.664	0.0625	0.0854	0.7944	8.8824	1.4008	1.7084	18.9100 
1146.664	0.0747	0.0991	0.8477	8.8550	1.5930	1.4667	18.9000 
1146.664	0.0845	0.0947	0.9146	8.7836	1.7578	1.3019	18.8700 
1146.665	0.0991	0.1157	0.9648	8.6572	1.8567	1.1261	18.8800 
1146.665	0.1167	0.1948	1.0020	8.5913	1.9391	0.8899	18.9000 
1146.688	0.1284	0.2119	1.0298	8.6078	1.9501	0.8020	18.9100 
1146.688	0.1338	0.2266	1.0146	8.6737	1.9171	0.7965	18.8800 
1146.707	0.1196	0.2852	1.0093	8.7891	1.9281	0.7855	18.9000 
1146.728	0.1084	0.2412	0.9990	8.8824	1.9336	0.9174	18.8900 
1146.838	0.0889	0.2266	1.0215	8.9484	1.9995	1.0602	18.8900 
1146.865	0.1006	0.2969	1.0229	9.0637	2.1039	1.1755	18.8900 
1146.865	0.1816	0.3525	1.0112	9.2120	2.1313	1.4172	18.8800 
1146.865	0.2388	0.3228	1.0015	9.3164	2.0984	1.7578	18.8900 
1146.865	0.1479	0.1548	1.0005	9.3658	2.1643	2.0105	18.8900 
1146.865	0.0039	0.1323	1.0552	9.4537	2.4884	1.9061	18.8900 
1146.865	-0.1621	0.1938	1.3667	9.7119	3.0432	1.6589	18.8800 
1146.889	-0.1211	0.2998	1.4067	10.0580	3.3673	1.6479	18.8800 
1146.906	0.0083	0.2676	1.0303	10.5084	3.1750	2.1039	18.8700 
1146.928	-0.0273	0.0166	0.8838	10.7391	2.9828	2.7026	18.8600 
1146.944	-0.1821	0.1177	0.9824	10.7776	3.3673	2.4280	18.8600 
1147.050	-0.2764	0.1514	1.1924	10.7831	3.8947	2.0215	18.8600 
1147.061	-0.2671	0.0439	1.3188	10.6128	4.1199	1.8951	18.8600 
1147.061	-0.1411	0.2373	1.3081	10.4535	4.1473	1.8677	18.8700 
1147.061	-0.0400	0.1982	1.1499	10.3821	3.8232	2.2742	18.8600 
1147.061	0.0127	0.1768	1.0244	10.2502	3.4662	2.7466	18.8400 
1147.061	0.0488	0.2461	0.8501	10.1074	3.2245	3.1201	18.8400 
1147.081	0.0303	0.1514	0.7583	9.9426	2.9773	3.5486	18.8400 
1147.101	-0.0107	0.1226	0.7358	9.7064	2.8015	3.8068	18.8400 
1147.126	-0.0234	0.2021	0.7607	9.5361	2.6642	3.8232	18.8200 
1147.147	-0.0073	0.1865	0.8018	9.3604	2.4719	3.9166	18.8300 
1147.166	0.0098	0.1343	0.8276	9.1351	2.2357	4.1034	18.8300 
1147.262	0.0186	0.1445	0.8867	8.9374	2.0654	4.1473	18.8100 
1147.280	0.0220	0.1733	0.8989	8.8275	1.9611	3.9990	18.8100 
1147.280	0.0186	0.2300	0.8882	8.8220	1.8787	3.7463	18.8000 
1147.280	-0.0005	0.2476	0.9033	8.8770	1.8292	3.5211	18.8100 
1147.280	-0.0288	0.2524	0.9282	8.9594	1.7798	3.3783	18.8100 
1147.297	-0.0386	0.2896	0.9771	9.0527	1.7358	3.2739	18.7900 
1147.315	-0.0034	0.3232	1.0249	9.1296	1.6150	3.2465	18.8000 
1147.338	0.0366	0.3311	1.0430	9.1736	1.4227	3.2355	18.8000 
1147.356	0.0503	0.3442	1.0469	9.2175	1.2469	3.1805	18.8100 
1147.381	0.0107	0.3022	1.0469	9.2834	1.1316	3.1201	18.8000 
1147.508	-0.0576	0.2876	1.0835	9.3329	1.1261	3.0103	18.7900 
1147.508	-0.0313	0.3286	1.1768	9.3658	1.1591	2.8839	18.8100 
1147.538	0.1113	0.3057	1.3809	9.3109	1.0327	2.9993	18.8000 
1147.538	0.1768	0.2056	1.2402	9.2450	0.6647	3.3728	18.8100 
1147.538	0.1772	0.0957	1.2471	9.1736	0.4010	3.7628	18.7900 
1147.538	0.1719	0.0752	1.1895	9.1187	0.2307	4.1473	18.8000 
1147.538	0.1133	-0.0405	1.1875	8.9758	0.1373	4.7461	18.7800 
1147.538	0.1094	-0.1372	1.1401	8.6792	0.1208	5.0812	18.7800 
1147.557	0.0991	0.0200	1.2036	8.4595	0.3625	4.7296	18.8000 
1147.579	-0.0024	0.0737	1.1631	8.3881	0.5933	4.2407	18.8000 
1147.580	-0.0269	0.0596	1.0845	8.3441	0.7965	3.7848	18.7800 
1147.674	0.0137	0.1362	0.9521	8.3441	0.9888	3.3563	18.7800 
1147.698	0.0400	0.0728	0.8618	8.3167	1.0931	3.1915	18.7600 
1147.698	0.0781	0.0415	0.8120	8.2562	1.2250	3.0377	18.7600 
1147.698	0.0903	0.0698	0.8022	8.2727	1.3953	2.7576	18.7500 
1147.698	0.0830	0.0977	0.8076	8.3221	1.5930	2.4005	18.7600 
1147.721	0.0747	0.1162	0.8452	8.3936	1.8018	1.9995	18.7800 
1147.740	0.0664	0.1113	0.8857	8.4430	1.9556	1.6479	18.7600 
1147.741	0.0625	0.0981	0.9336	8.4320	2.1149	1.3568	18.7600 
1147.761	0.0654	0.1392	0.9575	8.4155	2.2906	1.0492	18.7600 
1147.780	0.0859	0.1870	0.9741	8.4595	2.4445	0.7526	18.7600 
1147.908	0.1064	0.1982	1.0083	8.5474	2.5488	0.5438	18.7400 
1147.935	0.1250	0.2114	1.0059	8.6902	2.6202	0.3845	18.7400 
1147.935	0.1079	0.2271	1.0156	8.8989	2.6971	0.2747	18.7300 
1147.935	0.0820	0.2168	1.0435	9.1077	2.8015	0.2252	18.7400 
1147.935	0.0322	0.2090	1.0654	9.3164	2.9059	0.1923	18.7300 
1147.935	0.0586	0.3130	1.0488	9.5361	3.0103	0.0934	18.7400 
1147.935	0.1763	0.3833	0.9775	9.7943	3.0048	0.1538	18.7400 
1147.957	0.2041	0.2627	0.9526	9.9866	2.9388	0.4010	18.7400 
1148.057	0.0884	0.1909	0.9497	10.1239	3.0212	0.4449	18.7200 
1148.077	-0.0220	0.2349	1.0342	10.3546	3.3344	0.1923	18.7100 
1148.078	-0.1514	0.1660	1.2583	10.6622	3.6145	0.0989	18.7100 
1148.078	-0.0811	0.2969	1.1426	11.0193	3.6584	0.0989	18.7100 
1148.078	-0.0483	0.2388	1.0264	11.4258	3.5046	0.3296	18.7100 
1148.078	-0.0811	0.0303	1.0234	11.5686	3.4058	0.6097	18.7200 
1148.078	-0.2031	0.1304	1.1245	11.5247	3.7354	0.2692	18.7100 
1148.101	-0.2485	0.2188	1.2437	11.4368	4.2517	-0.2417	18.7000 
1148.118	-0.2358	0.1255	1.3257	11.2885	4.5319	-0.3845	18.7000 
1148.140	-0.1338	0.2002	1.2466	11.1292	4.5758	-0.3625	18.6900 
1148.157	-0.0381	0.2471	1.0801	11.0193	4.4659	-0.1483	18.7000 
1148.263	0.0034	0.2378	0.9399	10.9149	4.2407	0.2087	18.7000 
1148.282	0.0317	0.1987	0.7607	10.8105	4.0100	0.6537	18.6900 
1148.282	0.0132	0.1484	0.7393	10.6403	3.8232	1.0382	18.6900 
1148.282	-0.0269	0.2183	0.7090	10.4425	3.7134	1.0986	18.6900 
1148.282	-0.0474	0.2573	0.7637	10.2832	3.6694	1.0107	18.6800 
1148.282	-0.0537	0.1719	0.8066	10.0964	3.5266	1.0547	18.6800 
1148.298	-0.0283	0.2051	0.8271	9.8712	3.3783	1.0327	18.6700 
1148.314	-0.0142	0.1982	0.9194	9.6515	3.2465	0.9503	18.6800 
1148.335	-0.0103	0.1719	0.9224	9.4263	3.1201	0.8459	18.6600 
1148.356	-0.0283	0.2563	0.9478	9.2834	3.1146	0.5548	18.6600 
1148.377	-0.0420	0.3105	0.9375	9.2560	3.1311	0.1923	18.6600 
1148.485	-0.0630	0.2798	0.9663	9.2505	3.1256	0.0000	18.6500 
1148.514	-0.0698	0.2622	1.0112	9.2120	3.0872	-0.1593	18.6700 
1148.514	-0.0532	0.2949	1.0688	9.2120	3.0212	-0.3021	18.6500 
1148.514	-0.0293	0.2749	1.0571	9.2725	2.8125	-0.3351	18.6400 
1148.514	-0.0254	0.2773	1.0430	9.3878	2.5818	-0.4010	18.6500 
1148.514	-0.0454	0.3408	1.0132	9.5636	2.4060	-0.5109	18.6600 
1148.533	-0.0400	0.3584	1.0347	9.7504	2.2357	-0.5658	18.6400 
1148.554	0.0557	0.3384	1.1934	9.8712	1.9775	-0.5164	18.6600 
1148.569	0.1187	0.2827	1.2725	9.9536	1.5710	-0.3571	18.6700 
1148.595	0.1563	0.2158	1.2104	10.0635	1.1426	-0.2582	18.6500 
1148.596	0.2041	0.1909	1.2456	10.1074	0.8734	-0.1208	18.6300 
1148.702	0.2417	0.0117	1.1836	10.0525	0.5658	0.3790	18.6400 
1148.732	0.2051	-0.1099	1.1450	9.8547	0.3461	0.8844	18.6200 
1148.732	0.1382	-0.0298	1.1948	9.6625	0.4065	0.6921	18.6300 
1148.732	0.0044	0.0317	1.2964	9.5746	0.7086	0.0934	18.6200 
1148.732	-0.0732	0.1211	1.2222	9.5361	1.0437	-0.5823	18.6200 
1148.732	-0.0259	0.2129	1.0283	9.5581	1.2744	-1.1371	18.6200 
1148.749	0.0273	0.1182	0.7769	9.5746	1.4282	-1.2689	18.6200 
1148.773	0.0454	0.0195	0.6792	9.4977	1.6479	-1.2634	18.6200 
1148.773	0.0327	0.0972	0.7432	9.4098	2.1149	-1.5216	18.6200 
1148.791	0.0308	0.1362	0.7983	9.3604	2.5653	-1.8512	18.6200 
1148.814	0.0342	0.1074	0.8457	9.2944	2.8784	-2.0654	18.6000 
1148.916	0.0601	0.1323	0.8286	9.2340	3.1201	-2.2412	18.6000 
1148.951	0.0630	0.1479	0.9331	9.1406	3.3344	-2.2961	18.6000 
1148.951	0.0654	0.1104	1.0024	8.9209	3.4717	-2.2302	18.6000 
1148.951	0.0913	0.1738	1.0190	8.6902	3.5541	-2.2412	18.5900 
1148.951	0.0957	0.2368	1.0117	8.6243	3.6145	-2.2961	18.5900 
1148.952	0.0815	0.1929	0.9878	8.6682	3.6255	-2.1698	18.5900 
1148.972	0.0664	0.1890	0.9800	8.7396	3.6475	-1.9775	18.5800 
1148.973	0.0303	0.2241	1.0503	8.8495	3.7354	-1.7963	18.5700 
1148.994	0.0317	0.2153	1.1016	8.9703	3.8123	-1.4996	18.5700 
1149.013	0.0884	0.2769	1.0830	9.1022	3.8617	-1.1426	18.5700 
1149.112	0.1577	0.3364	1.0264	9.2725	3.8892	-0.8020	18.5800 
1149.131	0.1846	0.2651	0.9805	9.4482	3.9386	-0.4285	18.5700 
1149.131	0.0703	0.1392	0.9619	9.6021	4.0649	-0.1428	18.5800 
1149.131	-0.2051	0.0889	1.2988	9.8053	4.5264	-0.2197	18.5800 
1149.131	-0.2070	0.3140	1.3042	10.1019	5.0098	-0.4944	18.5700 
1149.146	-0.1440	0.2998	1.0034	10.5853	4.9988	-0.2856	18.5800 
1149.163	-0.1846	-0.0269	0.8345	10.8710	4.8340	0.3516	18.5700 
1149.188	-0.2568	0.1279	1.0737	10.8655	5.1965	0.2417	18.5700 
1149.203	-0.2715	0.2090	1.2134	10.8270	5.5701	0.1044	18.5700 
1149.217	-0.2471	0.0518	1.3599	10.6842	5.5756	0.4395	18.5600 
1149.234	-0.1372	0.2671	1.3032	10.5359	5.4492	0.6921	18.5800 
1149.331	-0.0249	0.2891	1.1396	10.5249	5.1141	1.2524	18.5600 
1149.345	0.0024	0.1450	0.9678	10.4260	4.6417	2.0929	18.5500 
1149.345	0.0005	0.1851	0.8071	10.2448	4.3726	2.6257	18.5600 
1149.345	-0.0229	0.2075	0.7524	10.1294	4.2078	2.9333	18.5500 
1149.345	-0.0518	0.1255	0.6826	10.0140	3.9716	3.2190	18.5600 
1149.370	-0.0752	0.1792	0.6880	9.8767	3.8452	3.2629	18.5400 
1149.370	-0.0557	0.2710	0.7383	9.7888	3.7408	3.2739	18.5200 
1149.390	-0.0083	0.1909	0.8022	9.6130	3.5046	3.5431	18.5500 
1149.411	0.0244	0.1514	0.8545	9.2999	3.2684	3.8177	18.5200 
1149.432	-0.0020	0.1548	0.9136	8.9923	3.1421	3.8068	18.5300 
1149.544	-0.0151	0.2500	0.9150	8.8495	3.1091	3.4882	18.5300 
1149.564	-0.0449	0.3701	0.9604	8.8330	3.1036	3.2355	18.5200 
1149.564	-0.0508	0.3208	0.9976	8.7836	2.9773	3.3069	18.5300 
1149.564	-0.0308	0.2676	1.0156	8.6572	2.8015	3.4332	18.5200 
1149.564	-0.0220	0.3003	1.0742	8.5419	2.6752	3.4662	18.5100 
1149.564	0.0034	0.2861	1.1157	8.4595	2.4939	3.5211	18.5100 
1149.587	-0.0054	0.2720	1.0830	8.4430	2.2797	3.5431	18.5100 
1149.680	-0.0254	0.3374	1.0801	8.5309	2.1259	3.4332	18.5100 
1149.697	-0.0273	0.3350	1.0679	8.6462	1.9556	3.3783	18.5000 
1149.698	0.0283	0.3364	1.0356	8.7781	1.7249	3.3728	18.5100 
1149.698	0.0698	0.2910	1.1699	8.9044	1.4667	3.4167	18.5000 
1149.698	0.1382	0.2168	1.1836	9.0692	1.0712	3.5046	18.5000 
1149.698	0.1445	0.1646	1.1875	9.2889	0.7251	3.5266	18.4900 
1149.716	0.2173	0.1035	1.2227	9.4757	0.4999	3.6694	18.5000 
1149.728	0.1987	-0.0381	1.2817	9.4812	0.3845	4.0155	18.5000 
1149.750	0.1973	-0.0552	1.2539	9.3768	0.3790	4.1144	18.4900 
1149.768	0.1426	-0.0171	1.2402	9.3054	0.5383	3.8562	18.4900 
1149.792	-0.0283	0.0112	1.2720	9.2889	0.9009	3.2959	18.5000 
1149.893	-0.0576	0.1758	1.2046	9.3768	1.3239	2.5104	18.4900 
1149.928	0.0044	0.2520	0.8765	9.5801	1.5381	1.9830	18.4800 
1149.928	0.0396	0.1152	0.7192	9.7284	1.6205	1.9006	18.4900 
1149.928	0.0571	0.0615	0.6733	9.7888	1.8127	1.7908	18.4800 
1149.928	0.0361	0.1079	0.7393	9.8383	2.2083	1.3843	18.4800 
1149.928	0.0259	0.1025	0.8149	9.8657	2.5928	0.9283	18.4800 
1149.928	0.0313	0.1016	0.8232	9.8657	2.9004	0.4944	18.4800 
1149.949	0.0396	0.1494	0.9209	9.8712	3.2135	0.0769	18.4700 
1149.974	0.0503	0.1274	0.9263	9.8273	3.4222	-0.1648	18.4700 
1149.984	0.0693	0.1309	0.9771	9.7394	3.5925	-0.3625	18.4600 
1150.007	0.0859	0.2222	1.0034	9.7009	3.7903	-0.6921	18.4600 
1150.028	0.0898	0.3052	1.0337	9.7504	3.9331	-0.9613	18.4600 
1150.131	0.0884	0.2534	0.9951	9.8218	3.9551	-0.9613	18.4600 
1150.143	0.0410	0.2188	0.9819	9.8547	3.9825	-0.8240	18.4700 
1150.143	0.0049	0.2456	1.0293	9.9042	4.1034	-0.7086	18.4600 
1150.143	-0.0278	0.1714	1.0825	9.9481	4.2078	-0.4065	18.4600 
1150.143	0.0425	0.3203	1.0522	10.0250	4.3011	-0.1703	18.4600 
1150.143	0.1797	0.4141	0.9678	10.2502	4.2847	0.1923	18.4600 
1150.162	0.1582	0.1714	0.9146	10.4480	4.1144	0.9283	18.4600 
1150.187	-0.0269	0.1187	1.0420	10.5963	4.1803	1.2744	18.4600 
1150.212	-0.1772	0.2021	1.3320	10.8545	4.5593	1.1810	18.4700 
1150.228	-0.1367	0.3350	1.1909	11.1951	4.5648	1.1646	18.4700 
1150.336	-0.1284	0.1216	0.9990	11.4752	4.3286	1.5381	18.4700 
1150.365	-0.2085	-0.0073	1.0303	11.4917	4.3835	1.5820	18.4700 
1150.365	-0.2793	0.1768	1.2466	11.4478	4.7516	1.2250	18.4700 
1150.365	-0.2720	0.1729	1.3359	11.3818	4.9438	1.1755	18.4700 
1150.365	-0.1357	0.2437	1.3105	11.2665	4.8944	1.3623	18.4700 
1150.365	-0.0503	0.2827	1.2568	11.1841	4.6637	1.7688	18.4600 
1150.383	0.0210	0.2129	1.0137	11.0852	4.3176	2.3566	18.4700 
1150.383	0.0327	0.2446	0.8735	10.9863	4.0759	2.8619	18.4500 
1150.403	0.0166	0.1665	0.7822	10.8490	3.8837	3.3673	18.4600 
1150.424	-0.0132	0.1367	0.7441	10.6183	3.7463	3.6749	18.4600 
1150.446	-0.0386	0.1929	0.7690	10.4095	3.6804	3.7189	18.4600 
1150.554	-0.0254	0.2573	0.7300	10.2832	3.5760	3.7134	18.4400 
1150.581	-0.0181	0.1982	0.7437	10.1459	3.3948	3.8617	18.4600 
1150.582	-0.0356	0.1270	0.8315	9.9097	3.2410	4.0045	18.4600 
1150.582	-0.0361	0.1738	0.9121	9.6680	3.1641	3.9276	18.4600 
1150.582	-0.0234	0.2144	0.9043	9.5471	3.0707	3.7518	18.4400 
1150.582	-0.0239	0.2866	0.8774	9.5801	2.9828	3.5431	18.4500 
1150.603	-0.0342	0.3042	0.9170	9.6460	2.9279	3.3893	18.4400 
1150.604	-0.0420	0.2729	1.0225	9.6515	2.8345	3.3014	18.4400 
1150.624	-0.0391	0.2827	1.0918	9.6350	2.6971	3.1860	18.4400 
1150.644	-0.0142	0.2866	1.1011	9.6735	2.4609	3.0927	18.4600 
1150.673	-0.0405	0.2544	1.0933	9.7668	2.2412	3.0322	18.4400 
1150.752	-0.0869	0.3267	1.0967	9.9261	2.1149	2.9773	18.4300 
1150.752	-0.0527	0.3257	1.1992	10.0635	1.9995	3.0817	18.4300 
1150.779	0.1411	0.3286	1.3135	10.1459	1.7194	3.3893	18.4500 
1150.780	0.2056	0.3174	1.2192	10.3326	1.2634	3.8123	18.4400 
1150.780	0.1909	0.2197	1.0781	10.5194	0.8899	4.1638	18.4200 
1150.799	0.2080	0.2266	1.1162	10.5908	0.7690	4.3945	18.4300 
1150.821	0.1655	-0.0259	1.1118	10.4425	0.6866	4.8834	18.4400 
1150.835	0.1743	-0.0923	1.0591	10.1239	0.6427	5.2570	18.4200 
1150.861	0.0518	-0.0420	1.3042	9.8383	0.8954	5.1306	18.4300 
1150.861	-0.0601	-0.0210	1.3721	9.6405	1.2305	4.6967	18.4300 
1150.978	-0.0313	0.1665	1.1992	9.5636	1.4667	4.1638	18.4200 
1150.996	0.0654	0.2588	1.0181	9.5691	1.5546	3.8397	18.4300 
1150.996	0.1553	0.0962	0.7944	9.5142	1.5216	3.9825	18.4200 
1150.996	0.1558	0.0234	0.7734	9.3549	1.6260	4.1364	18.4400 
1150.996	0.0815	0.0981	0.8247	9.2450	2.0160	3.8013	18.4100 
1150.996	0.0391	0.1167	0.8315	9.2010	2.4500	3.2300	18.4100 
1151.017	0.0225	0.0894	0.8179	9.1736	2.8015	2.6862	18.4300 
1151.041	0.0142	0.1118	0.8477	9.1351	3.1311	2.1643	18.4300 
1151.055	0.0435	0.1484	0.9175	9.0802	3.3948	1.7194	18.4200 
1151.068	0.0669	0.1348	0.8975	8.9978	3.5321	1.4337	18.4300 
1151.193	0.0952	0.1851	0.9570	8.9594	3.6749	1.1591	18.4500 
1151.217	0.1138	0.2031	0.9678	9.0253	3.7354	0.9119	18.4300 
1151.217	0.0957	0.1670	0.9487	9.1351	3.7793	0.7086	18.4200 
1151.217	0.0430	0.2280	1.0078	9.2944	3.9716	0.4065	18.4200 
1151.217	0.0088	0.2251	1.0273	9.4977	4.1418	0.2472	18.4300 
1151.217	0.0010	0.1934	1.0181	9.6954	4.2462	0.2527	18.4200 
1151.217	0.0791	0.3364	0.9956	9.9481	4.3286	0.2527	18.4000 
1151.237	0.2095	0.3652	0.9375	10.2557	4.2847	0.4834	18.4300 
1151.237	0.1694	0.1812	0.9141	10.4535	4.2078	0.8899	18.4200 
1151.263	-0.1084	0.0659	1.1934	10.5688	4.5154	0.8844	18.4300 
1151.278	-0.2598	0.1475	1.4253	10.7886	5.0043	0.5823	18.4200 
1151.296	-0.1738	0.3989	1.1816	11.1401	5.0757	0.5493	18.4300 
1151.404	-0.1670	0.1626	1.0435	11.4038	4.9384	1.0327	18.4200 
1151.411	-0.1748	0.1460	1.0142	11.3654	5.0702	1.1646	18.4200 
1151.412	-0.1846	0.2026	1.1519	11.2280	5.3613	1.1810	18.4100 
1151.412	-0.2563	-0.0049	1.3159	10.9644	5.4547	1.3788	18.4100 
1151.412	-0.2056	0.1592	1.2988	10.7062	5.4877	1.3568	18.4000 
1151.430	-0.0898	0.3359	1.1587	10.6238	5.3174	1.4941	18.4100 
1151.454	-0.0400	0.2119	0.9951	10.5249	4.9438	2.0819	18.4100 
1151.476	0.0000	0.0991	0.8179	10.2832	4.6088	2.7411	18.3900 
1151.491	-0.0244	0.0664	0.7739	10.0250	4.3890	3.1915	18.4000 
1151.517	-0.0806	0.0938	0.7646	9.8218	4.2792	3.3069	18.4100 
1151.630	-0.0991	0.1392	0.7578	9.6954	4.1638	3.2520	18.4000 
1151.631	-0.0273	0.3105	0.7666	9.6899	3.9496	3.2355	18.4000 
1151.647	0.0073	0.2349	0.8057	9.6405	3.5980	3.6035	18.3800 
1151.647	0.0298	0.1050	0.8608	9.4263	3.2080	4.0375	18.3900 
1151.647	0.0381	0.2002	0.9033	9.2450	3.0157	4.0375	18.4000 
1151.647	0.0396	0.3442	0.9438	9.2450	2.9169	3.7903	18.3800 
1151.647	0.0264	0.3296	0.9287	9.3054	2.7960	3.6420	18.3900 
1151.677	-0.0093	0.3364	0.9790	9.3274	2.7356	3.5156	18.4000 
1151.677	-0.0415	0.3193	1.0293	9.2999	2.7301	3.3838	18.3900 
1151.792	-0.0688	0.2764	1.0723	9.2120	2.7026	3.2794	18.3900 
1151.813	-0.0654	0.2715	1.0752	9.1296	2.6257	3.1476	18.3900 
1151.814	-0.0244	0.2964	1.0449	9.0912	2.4445	3.0322	18.3800 
1151.814	-0.0308	0.2861	1.0234	9.1022	2.2083	2.9773	18.3800 
1151.814	-0.0083	0.3735	1.0205	9.1571	1.9830	2.9114	18.3800 
1151.814	0.0400	0.3672	1.1396	9.1956	1.7303	2.9388	18.3800 
1151.835	0.1665	0.2446	1.1675	9.1846	1.2634	3.2135	18.3800 
1151.835	0.1572	0.1221	1.1655	9.2120	0.7471	3.5046	18.3700 
1151.857	0.1973	0.1201	1.1646	9.2340	0.4669	3.5870	18.3800 
1151.875	0.2080	0.1084	1.2285	9.2120	0.4010	3.7683	18.3800 
1151.895	0.1577	-0.1504	1.1777	8.9758	0.2911	4.2572	18.3700 
1152.015	0.0898	-0.2129	1.2168	8.6243	0.3241	4.4989	18.3800 
1152.032	-0.1133	-0.0747	1.4497	8.4210	0.8295	3.7463	18.3800 
1152.032	-0.1016	0.1528	1.3784	8.4540	1.2469	2.8015	18.3600 
1152.032	0.0112	0.2871	1.1133	8.6517	1.2799	2.3511	18.3700 
1152.032	0.1182	0.0811	0.8481	8.7561	1.1041	2.6093	18.3700 
1152.032	0.1187	-0.0244	0.7217	8.7067	1.0272	2.9333	18.3600 
1152.052	0.0591	0.1206	0.8325	8.6847	1.3788	2.6038	18.3600 
1152.072	0.0400	0.1880	0.8472	8.7891	1.7084	2.1039	18.3500 
1152.072	0.0503	0.1138	0.7856	8.8550	1.8732	1.8457	18.3600 
1152.093	0.0664	0.1250	0.7725	8.8550	2.0380	1.6260	18.3400 
1152.114	0.0493	0.1025	0.9331	8.8000	2.2412	1.4996	18.3500 
1152.224	0.0439	0.0640	0.9175	8.6517	2.3566	1.4172	18.3200 
1152.249	0.0767	0.2153	0.9380	8.5748	2.5269	1.1536	18.3400 
1152.249	0.1094	0.2646	0.9595	8.6517	2.6147	0.9943	18.3500 
1152.249	0.1416	0.2192	0.9263	8.7506	2.5818	1.0382	18.3600 
1152.249	0.1313	0.2520	0.9810	8.8605	2.6422	1.0052	18.3400 
1152.249	0.0854	0.2280	1.0244	8.9648	2.7411	0.9613	18.3400 
1152.273	0.0605	0.1885	1.0229	9.0363	2.8400	0.9338	18.3400 
1152.273	0.0776	0.2896	1.0532	9.1516	2.9883	0.8295	18.3400 
1152.370	0.1211	0.3013	1.0483	9.3109	3.0487	0.8844	18.3300 
1152.392	0.1704	0.2598	0.9927	9.4373	3.0432	1.0657	18.3200 
1152.392	0.1216	0.2173	1.0073	9.5746	3.1146	1.1920	18.3300 
1152.392	-0.1094	0.0547	1.2554	9.7284	3.4003	1.2469	18.3200 
1152.392	-0.1875	0.1299	1.4536	9.9207	3.7903	1.1041	18.3200 
1152.392	-0.0996	0.3911	1.2036	10.3107	3.8287	1.0492	18.3200 
1152.413	-0.0630	0.1714	1.0249	10.5908	3.6584	1.4941	18.3100 
1152.430	-0.1357	0.0317	0.9604	10.5688	3.7793	1.6370	18.3100 
1152.449	-0.1978	0.1357	1.1333	10.4645	4.3561	1.2360	18.3200 
1152.468	-0.2637	0.0576	1.2939	10.2997	4.8395	0.9009	18.3000 
1152.489	-0.2090	0.1787	1.2563	10.1239	5.1141	0.5713	18.3100 
1152.513	-0.0859	0.2983	1.1147	10.0690	5.1086	0.5383	18.3000 
1152.533	-0.0332	0.1543	0.9219	9.9976	4.8175	1.0437	18.2900 
1152.640	0.0132	0.1470	0.7988	9.8328	4.6088	1.5271	18.2900 
1152.667	0.0142	0.1924	0.7637	9.7009	4.4769	1.8402	18.2800 
1152.667	-0.0122	0.1128	0.7080	9.5306	4.3011	2.1313	18.2900 
1152.667	-0.0190	0.1675	0.7231	9.3384	4.1693	2.1808	18.2700 
1152.667	-0.0239	0.2378	0.8042	9.1901	4.0540	2.1643	18.2700 
1152.667	-0.0205	0.1919	0.8247	9.0088	3.8562	2.2852	18.2700 
1152.690	-0.0176	0.1626	0.9336	8.7286	3.6804	2.3840	18.2700 
1152.792	-0.0156	0.1841	0.9824	8.4540	3.5431	2.3181	18.2600 
1152.829	-0.0044	0.2427	0.9478	8.2837	3.4167	2.0599	18.2500 
1152.829	-0.0215	0.2798	0.9233	8.2233	3.3453	1.7413	18.2500 
1152.829	-0.0850	0.2202	0.9355	8.2123	3.3344	1.5381	18.2600 
1152.829	-0.0933	0.2383	0.9517	8.2013	3.3289	1.3184	18.2400 
1152.830	-0.0542	0.2725	1.0283	8.2123	3.2574	1.1206	18.2600 
1152.830	-0.0225	0.2549	1.0527	8.2452	3.0542	1.0162	18.2500 
1152.830	-0.0405	0.2407	1.0264	8.3606	2.8070	0.8624	18.2500 
1152.850	-0.1021	0.2573	1.0796	8.5309	2.6807	0.6317	18.2600 
1152.868	-0.1187	0.3091	1.1113	8.7067	2.6202	0.4340	18.2400 
1152.888	0.0146	0.3403	1.2861	8.8165	2.4335	0.4944	18.2400 
1152.909	0.1450	0.2773	1.3750	8.8770	1.9885	0.9229	18.2500 
1153.008	0.1934	0.1270	1.3354	8.9594	1.4172	1.3678	18.2400 
1153.026	0.1904	0.1699	1.2158	9.0747	1.0437	1.5271	18.2200 
1153.026	0.1538	0.1807	1.0591	9.2120	0.8405	1.8018	18.2200 
1153.026	0.1099	-0.0718	1.0483	9.0527	0.6702	2.4060	18.2400 
1153.026	0.0913	-0.1309	1.1294	8.7122	0.6866	2.4829	18.2500 
1153.026	0.0454	0.1108	1.2725	8.5583	0.9943	1.7029	18.2300 
1153.049	0.0029	0.1338	1.1260	8.5748	1.0657	1.1536	18.2300 
1153.072	0.0088	0.0684	0.9478	8.5364	1.0547	0.7965	18.2400 
1153.088	0.0273	0.1367	0.8633	8.4760	1.2305	0.4065	18.2200 
1153.109	0.0342	0.0762	0.8257	8.3936	1.4172	0.2142	18.2200 
1153.209	0.0645	0.0190	0.7949	8.2617	1.5930	0.1154	18.2100 
1153.227	0.0728	0.0791	0.8081	8.2013	1.8073	-0.1538	18.2200 
1153.227	0.0386	0.0659	0.8413	8.2068	2.0050	-0.4834	18.2400 
1153.227	0.0332	0.0591	0.8721	8.1958	2.2028	-0.7910	18.2400 
1153.228	0.0474	0.1382	0.9775	8.1573	2.3895	-1.0272	18.2100 
1153.228	0.0801	0.1494	1.0010	8.1024	2.4170	-1.0437	18.2100 
1153.245	0.1255	0.1489	0.9482	8.0695	2.2906	-0.8734	18.2100 
1153.266	0.1401	0.2407	0.9746	8.1024	2.2192	-0.8020	18.2200 
1153.287	0.1333	0.2017	0.9814	8.1738	2.1423	-0.6317	18.2200 
1153.309	0.1030	0.1519	0.9609	8.2288	2.1094	-0.4395	18.2100 
1153.404	0.0635	0.2354	1.0103	8.3386	2.2083	-0.3571	18.2200 
1153.430	0.0430	0.1880	1.0620	8.4705	2.2852	-0.0934	18.2000 
1153.430	0.1021	0.2383	1.0615	8.5419	2.3016	0.2197	18.2200 
1153.430	0.2144	0.4155	1.0649	8.6902	2.3071	0.3955	18.2000 
1153.430	0.2178	0.1855	0.9849	8.8605	2.1698	0.8405	18.2100 
1153.430	0.0479	-0.0444	0.9966	8.9813	2.1753	1.2689	18.2100 
1153.446	-0.2310	0.0996	1.3828	9.2670	2.6752	0.9943	18.2100 
1153.469	-0.1719	0.4126	1.3208	9.7229	3.0103	0.6976	18.2100 
1153.484	-0.0801	0.1816	1.1709	10.1349	2.8510	1.1700	18.2200 
1153.508	-0.0835	-0.0303	1.0103	10.2722	2.6477	1.6754	18.2100 
1153.523	-0.1523	0.2153	1.1377	10.4095	2.9663	1.4777	18.2000 
1153.627	-0.2280	0.1182	1.2114	10.5963	3.3508	1.3843	18.2100 
1153.642	-0.1348	0.2129	1.2778	10.6238	3.5541	1.4227	18.1900 
1153.642	-0.0430	0.2896	1.2407	10.6458	3.5541	1.6315	18.2100 
1153.642	0.0454	0.1558	0.9453	10.7007	3.1696	2.2687	18.2100 
1153.642	0.0796	0.2661	0.8096	10.7556	2.8400	2.7795	18.2100 
1153.642	0.0313	0.1860	0.7534	10.7776	2.5818	3.2190	18.1900 
1153.663	-0.0088	0.0830	0.7148	10.5963	2.3730	3.5815	18.1900 
1153.684	-0.0322	0.2529	0.7896	10.3986	2.3950	3.4442	18.2000 
1153.704	-0.0054	0.2495	0.7725	10.3052	2.3346	3.3398	18.2000 
1153.725	0.0151	0.1729	0.7378	10.1514	2.1478	3.3673	18.1800 
1153.821	0.0015	0.2310	0.8418	9.9701	2.0819	3.2355	18.1700 
1153.841	-0.0396	0.1592	0.9478	9.7504	2.0380	3.1036	18.1700 
1153.841	-0.0454	0.1650	0.9546	9.5361	1.9611	2.8784	18.1700 
1153.841	-0.0288	0.2729	0.9209	9.4537	1.9336	2.4554	18.1600 
1153.841	-0.0298	0.2871	0.9355	9.4702	1.8896	2.2522	18.1700 
1153.841	-0.0293	0.2314	0.9131	9.4812	1.7743	2.2192	18.1800 
1153.865	-0.0308	0.3052	1.0435	9.4977	1.7303	2.0984	18.1600 
1153.882	0.0000	0.3296	1.1113	9.5361	1.5765	2.0380	18.1600 
1153.906	0.0273	0.2720	1.0981	9.5966	1.3074	2.0709	18.1600 
1153.921	0.0112	0.3223	1.0801	9.7559	1.1316	1.9336	18.1600 
1153.939	-0.0239	0.3550	1.0537	9.9866	1.0382	1.8073	18.1600 
1154.039	-0.0054	0.3481	1.1069	10.1404	0.9723	1.7633	18.1500 
1154.061	0.0981	0.3467	1.3413	10.2063	0.8679	1.8237	18.1600 
1154.062	0.1797	0.2949	1.2559	10.2502	0.5109	2.0709	18.1400 
1154.062	0.1792	0.1616	1.1509	10.3052	0.1978	2.3291	18.1500 
1154.062	0.1924	0.1997	1.0493	10.3821	0.0385	2.4445	18.1400 
1154.063	0.1685	0.0273	1.1201	10.3271	0.0000	2.7795	18.1100 
1154.079	0.1880	-0.0669	1.0972	10.0800	-0.0275	3.0762	18.1400 
1154.106	0.1582	0.0781	1.1816	9.8438	0.1483	2.8125	18.1400 
1154.122	0.0718	0.0854	1.1865	9.6790	0.3735	2.4005	18.1400 
1154.139	-0.0259	0.0776	1.1479	9.5251	0.6097	1.9281	18.1200 
1154.158	-0.0254	0.1216	1.0439	9.3933	0.8405	1.4612	18.1300 
1154.251	0.0229	0.0640	0.8696	9.2944	0.9888	1.2799	18.1300 
1154.261	0.0605	0.0659	0.7930	9.2175	1.1316	1.1810	18.1100 
1154.261	0.0786	0.1108	0.8042	9.1956	1.3513	1.0162	18.1400 
1154.262	0.0713	0.1055	0.8179	9.1901	1.5601	0.8130	18.1200 
1154.262	0.0459	0.1206	0.8584	9.1736	1.7853	0.5658	18.1000 
1154.278	0.0591	0.1436	0.8906	9.1406	1.9830	0.3516	18.1100 
1154.301	0.0879	0.1226	0.9087	9.0637	2.0984	0.2966	18.1000 
1154.400	0.1069	0.1611	0.9316	9.0033	2.1973	0.2856	18.0800 
1154.408	0.1157	0.1929	0.9409	9.0088	2.2742	0.2911	18.1000 
1154.408	0.1089	0.1772	0.9302	9.0637	2.3181	0.3516	18.0900 
1154.408	0.0879	0.2109	0.9487	9.1681	2.4170	0.3516	18.0800 
1154.408	0.0483	0.1880	1.0127	9.2889	2.5763	0.3845	18.0900 
1154.436	0.0317	0.1914	1.0718	9.4208	2.7411	0.4779	18.0900 
1154.458	0.0410	0.2319	1.1001	9.6075	2.8510	0.6207	18.0800 
1154.480	0.1118	0.3428	1.0645	9.8657	2.8510	0.8350	18.0900 
1154.480	0.1758	0.3823	1.0356	10.1733	2.7521	1.1151	18.0900 
1154.503	0.1982	0.2788	0.9507	10.4865	2.5488	1.4667	18.0900 
1154.519	0.0894	0.1899	1.0142	10.8435	2.4390	1.7633	18.1100 
1154.537	-0.1074	0.2632	1.4111	11.2720	2.6642	1.7578	18.0900 
1154.561	-0.0601	0.4414	1.2910	11.7389	2.8070	1.6425	18.0800 
1154.661	-0.0869	0.1187	1.0815	12.1069	2.6312	2.0105	18.0800 
1154.671	-0.1118	0.0874	0.9761	12.2003	2.6422	2.1313	18.0900 
1154.671	-0.1514	0.2725	1.0020	12.2388	3.0432	1.7743	18.0900 
1154.671	-0.2461	0.0122	1.1309	12.1619	3.3398	1.7743	18.0800 
1154.671	-0.2437	0.1021	1.1890	11.8652	3.6310	1.6260	18.0800 
1154.697	-0.1333	0.3833	1.2437	11.6180	3.8782	1.4447	18.0700 
1154.719	-0.0469	0.2554	1.1069	11.4423	3.5870	2.0819	18.0800 
1154.719	0.0220	0.0313	0.8921	11.1621	3.1915	2.9333	18.0700 
1154.740	0.0356	0.2422	0.8848	11.0303	3.1476	3.1860	18.0900 
1154.757	0.0322	0.2524	0.7588	11.0358	2.9883	3.4882	18.0700 
1154.857	0.0303	0.1475	0.6875	10.9479	2.7301	3.8342	18.0500 
1154.875	0.0176	0.2515	0.7505	10.8600	2.6202	3.8123	18.0700 
1154.875	0.0039	0.2832	0.8066	10.7831	2.4884	3.7683	18.0600 
1154.875	0.0029	0.1875	0.8276	10.6183	2.2467	3.8452	18.0600 
1154.876	0.0205	0.2383	0.8477	10.4480	2.0654	3.7573	18.0400 
1154.876	0.0122	0.2446	0.9282	10.3271	1.9336	3.7079	18.0500 
1154.895	-0.0269	0.1880	0.9736	10.2228	1.8402	3.7408	18.0500 
1154.918	-0.0527	0.2939	0.9678	10.2008	1.8127	3.6420	18.0600 
1154.933	-0.0234	0.3452	0.9858	10.2283	1.7413	3.5706	18.0600 
1154.953	0.0386	0.3716	1.0259	10.2228	1.5601	3.5596	18.0700 
1154.973	0.0718	0.3945	1.0156	10.1953	1.3293	3.4607	18.0600 
1155.055	0.0371	0.3164	1.0425	10.1898	1.1096	3.3179	18.0500 
1155.077	-0.0161	0.2817	1.0444	10.2283	0.9503	3.1256	18.0600 
1155.077	-0.0898	0.3301	1.0874	10.3436	0.9064	2.9169	18.0700 
1155.077	-0.0527	0.3530	1.1855	10.4041	0.8295	2.8510	18.0600 
1155.077	0.1523	0.3408	1.3237	10.3436	0.5603	3.0377	18.0600 
1155.094	0.2378	0.2197	1.1831	10.2832	0.0769	3.4222	18.0500 
1155.117	0.2485	0.1147	1.2324	10.1404	-0.1538	3.6310	18.0500 
1155.133	0.2402	0.1143	1.2202	10.0140	-0.2747	3.7463	18.0500 
1155.152	0.1494	-0.0571	1.1753	9.7888	-0.3571	3.9935	18.0400 
1155.172	0.1274	-0.0962	1.1982	9.4647	-0.3516	4.0155	18.0400 
1155.256	0.0278	0.0010	1.2290	9.2285	-0.1813	3.6804	18.0500 
1155.282	-0.0264	0.0640	1.1875	9.1187	0.0494	3.2190	18.0300 
1155.283	0.0234	0.1714	0.9541	9.0637	0.2362	2.7631	18.0400 
1155.283	0.0615	0.1318	0.8145	9.0253	0.3845	2.5378	18.0500 
1155.283	0.0698	-0.0122	0.6885	8.9099	0.6207	2.4884	18.0300 
1155.312	0.0581	0.0234	0.7520	8.7726	1.0767	2.2083	18.0400 
1155.333	0.0371	0.0884	0.8384	8.6957	1.5656	1.7798	18.0300 
1155.346	0.0396	0.0483	0.8252	8.6023	1.9061	1.4941	18.0300 
1155.365	0.0718	0.1250	0.8872	8.5034	2.2357	1.2305	18.0300 
1155.472	0.0859	0.1509	0.9277	8.4265	2.5104	1.0162	18.0200 
1155.491	0.0840	0.0806	1.0103	8.2562	2.6752	0.9888	18.0200 
1155.491	0.0942	0.1538	1.0039	8.0969	2.8510	0.8844	18.0100 
1155.491	0.0889	0.2588	1.0356	8.1079	2.9938	0.7855	17.9900 
1155.491	0.0801	0.1772	0.9741	8.1628	2.9938	0.9174	18.0100 
1155.491	0.0532	0.1860	1.0044	8.2123	3.0432	1.0602	18.0100 
1155.491	0.0327	0.2349	1.0757	8.2837	3.1750	1.1371	18.0100 
1155.511	0.0229	0.2041	1.0537	8.3881	3.2355	1.4392	18.0000 
1155.531	0.0327	0.2075	1.0513	8.4869	3.2684	1.8457	18.0100 
1155.551	0.1470	0.3682	1.0293	8.6243	3.3069	2.1423	18.0000 
1155.569	0.2188	0.3594	1.0288	8.8000	3.2739	2.5049	18.0100 
1155.589	0.2197	0.2188	1.0000	8.9044	3.1750	2.9828	18.0100 
1155.674	-0.0020	0.0957	1.1323	8.9703	3.3124	3.1036	17.9900 
1155.692	-0.1558	0.1812	1.3936	9.1187	3.7573	2.7686	17.9800 
1155.692	-0.0781	0.4541	1.0771	9.4757	3.8177	2.5598	18.0100 
1155.692	-0.0830	0.1846	0.9409	9.7998	3.5760	3.0981	17.9900 
1155.692	-0.1646	-0.1035	0.8862	9.7998	3.5046	3.3783	17.9900 
1155.714	-0.2280	0.1113	1.1499	9.7449	3.8892	2.9883	18.0100 
1155.733	-0.2051	0.1831	1.2104	9.7119	3.9386	2.9718	18.0000 
1155.753	-0.1357	0.0942	1.1787	9.5911	3.7299	3.3893	18.0100 
1155.881	-0.0112	0.2681	1.1553	9.5087	3.5156	3.7354	18.0000 
1155.893	0.0269	0.2290	1.0830	9.4263	3.1970	4.3011	18.0000 
1155.893	0.0410	0.1172	0.9126	9.2395	2.8894	4.9109	17.9900 
1155.893	0.0220	0.1455	0.8877	9.0692	2.7411	5.2844	17.9900 
1155.893	-0.0151	0.1563	0.8105	8.9648	2.6257	5.5151	18.0000 
1155.894	-0.0327	0.1445	0.8057	8.8495	2.5323	5.6799	18.0000 
1155.894	0.0083	0.2544	0.8262	8.7616	2.4500	5.7184	17.9800 
1155.911	0.0537	0.2661	0.8330	8.6957	2.3126	5.8447	17.9900 
1155.931	0.0786	0.1147	0.8442	8.5364	2.1204	6.1139	17.9800 
1156.032	0.0469	0.0903	0.8638	8.3826	2.0490	6.1029	17.9700 
1156.043	-0.0405	0.1841	0.9219	8.3771	2.1918	5.6415	17.9800 
1156.043	-0.0776	0.2793	0.9565	8.5034	2.3840	5.1141	17.9800 
1156.043	-0.0605	0.3350	0.9932	8.6792	2.4390	4.8724	17.9800 
1156.043	-0.0356	0.2798	1.0186	8.7561	2.3676	4.8999	17.9800 
1156.065	-0.0273	0.2388	1.0508	8.7726	2.2632	4.9384	17.9700 
1156.089	-0.0205	0.2983	1.0308	8.8440	2.2137	4.7845	17.9800 
1156.110	-0.0483	0.2915	1.0220	8.9923	2.1808	4.6527	17.9800 
1156.111	-0.0581	0.3062	0.9990	9.1626	2.1039	4.5648	17.9800 
1156.129	-0.0166	0.3716	1.1367	9.2944	2.0160	4.5099	17.9900 
1156.149	0.0640	0.3472	1.2935	9.3329	1.8073	4.6912	17.9800 
1156.169	0.1528	0.1782	1.3013	9.3274	1.4117	5.1581	17.9800 
1156.190	0.1504	0.1035	1.2104	9.3329	1.0107	5.5920	17.9800 
1156.281	0.1792	0.1255	1.1997	9.3054	0.8569	5.8942	17.9800 
1156.293	0.1953	0.0532	1.1519	9.1846	0.7196	6.3281	17.9800 
1156.293	0.1602	-0.0952	1.0972	8.9539	0.5988	6.6357	17.9900 
1156.293	0.0488	-0.1133	1.1953	8.6957	0.7581	6.4874	17.9900 
1156.293	-0.0562	0.1450	1.2852	8.5803	1.1975	5.6909	17.9900 
1156.313	-0.0117	0.2603	1.0703	8.6133	1.4886	4.9933	17.9800 
1156.328	0.0654	0.0903	0.8018	8.6517	1.5216	4.9713	17.9800 
1156.348	0.0762	-0.0190	0.7241	8.5419	1.5765	5.2130	17.9800 
1156.368	0.0664	0.1270	0.8101	8.4320	1.9226	5.0812	17.9800 
1156.384	0.0669	0.1533	0.8477	8.4265	2.2687	4.8450	17.9800 
1156.501	0.0679	0.0469	0.8159	8.4265	2.4335	4.7516	17.9800 
1156.511	0.0615	0.1025	0.8379	8.4540	2.6422	4.4769	17.9800 
1156.512	0.0630	0.1895	0.9487	8.5144	2.9114	4.0704	17.9800 
1156.512	0.0562	0.1304	0.9839	8.4869	3.1036	3.8892	17.9800 
1156.512	0.0537	0.1079	0.9771	8.3936	3.2135	3.7793	17.9700 
1156.512	0.0591	0.1851	0.9756	8.3606	3.3179	3.5651	17.9500 
1156.527	0.0625	0.1987	0.9946	8.3936	3.3783	3.4167	17.9700 
1156.546	0.0659	0.2188	1.0059	8.4705	3.4003	3.3893	17.9600 
1156.567	0.0640	0.2207	1.0288	8.5748	3.3838	3.4937	17.9600 
1156.587	0.0742	0.1958	1.0918	8.6627	3.3069	3.7573	17.9500 
1156.603	0.0830	0.2485	1.1011	8.7451	3.2410	3.9551	17.9600 
1156.623	0.1992	0.4272	1.0527	8.8824	3.1805	4.0430	17.9600 
1156.718	0.2568	0.3320	0.9902	9.0417	3.0103	4.3561	17.9600 
1156.727	0.0889	0.0098	0.9355	9.1077	2.9333	4.7131	17.9600 
1156.727	-0.0820	0.1108	1.1602	9.2505	3.3398	4.4879	17.9800 
1156.727	-0.1758	0.3218	1.4424	9.4922	3.6859	4.3176	17.9700 
1156.727	-0.0249	0.4155	1.1704	9.8438	3.4937	4.5483	17.9700 
1156.743	-0.0278	-0.0376	0.9800	10.0525	3.0762	5.3174	17.9700 
1156.769	-0.1021	0.0137	0.9043	10.0800	3.1036	5.3009	17.9800 
1156.867	-0.2378	0.2661	1.1719	10.1624	3.6420	4.7021	17.9800 
1156.873	-0.2783	0.0430	1.2139	10.1184	3.9001	4.5978	17.9700 
1156.873	-0.1499	0.1851	1.1875	9.9646	4.0155	4.5099	17.9700 
1156.873	-0.0659	0.3047	1.1597	9.8932	3.9496	4.6252	17.9700 
1156.874	-0.0088	0.0767	0.9536	9.7614	3.5980	5.2460	17.9600 
1156.901	0.0020	0.1143	0.8877	9.5911	3.3948	5.6689	17.9600 
1156.923	-0.0034	0.2354	0.8364	9.5142	3.3179	5.8173	17.9800 
1156.945	0.0034	0.1885	0.7852	9.4373	3.1750	6.0315	17.9700 
1156.945	0.0107	0.1685	0.7603	9.3274	3.0487	6.1359	17.9500 
1156.963	0.0103	0.2056	0.8008	9.2670	2.9938	6.0370	17.9600 
1157.073	-0.0034	0.2090	0.8315	9.2175	2.9224	5.8667	17.9600 
1157.102	-0.0200	0.2056	0.8794	9.1516	2.8839	5.6799	17.9500 
1157.103	-0.0605	0.1362	0.9399	9.0308	2.8784	5.5481	17.9600 
1157.103	-0.0576	0.1890	0.9507	8.9539	2.9004	5.3064	17.9700 
1157.103	-0.0366	0.2905	0.9058	8.9978	2.8949	5.0647	17.9700 
1157.103	-0.0205	0.2983	0.8931	9.0637	2.8180	4.9988	17.9600 
1157.124	-0.0205	0.2437	0.9810	9.0527	2.7301	5.0647	17.9400 
1157.125	-0.0381	0.2217	1.0303	9.0198	2.6477	5.0757	17.9600 
1157.147	-0.0586	0.3013	1.1084	9.0747	2.6093	4.9219	17.9500 
1157.163	-0.0430	0.3516	1.0811	9.2340	2.5214	4.7681	17.9500 
1157.183	-0.0493	0.2700	1.0073	9.4373	2.3401	4.8120	17.9600 
1157.199	-0.0679	0.2832	1.0366	9.6240	2.2302	4.8560	17.9700 
1157.301	-0.0010	0.3452	1.2266	9.8053	2.1588	4.8834	17.9500 
1157.307	0.0854	0.3394	1.3003	9.9701	1.9446	5.0812	17.9700 
1157.307	0.1279	0.1797	1.1846	10.1404	1.5601	5.4767	17.9600 
1157.307	0.1523	0.1870	1.1450	10.2502	1.3184	5.7678	17.9500 
1157.307	0.1724	0.1387	1.1333	10.2997	1.2360	6.0535	17.9600 
1157.328	0.1851	0.0054	1.0698	10.1843	1.1151	6.4819	17.9400 
1157.344	0.1709	0.0225	1.1167	9.9536	1.1426	6.5314	17.9500 
1157.363	0.0742	0.0195	1.2275	9.7504	1.3403	6.2347	17.9400 
1157.383	-0.0195	0.0361	1.2476	9.6021	1.5710	5.7349	17.9300 
1157.398	-0.0654	0.1885	1.1450	9.5306	1.8127	5.2130	17.9200 
1157.418	-0.0337	0.1685	0.9941	9.4757	1.9006	5.0592	17.9200 
1157.516	0.0386	0.0381	0.8057	9.3274	1.9556	5.2130	17.9400 
1157.529	0.0835	0.0532	0.7925	9.1571	2.1588	5.2899	17.9500 
1157.530	0.0825	0.1094	0.8130	9.0527	2.4390	5.1746	17.9400 
1157.530	0.0547	0.0957	0.8203	8.9703	2.7136	4.9823	17.9400 
1157.530	0.0562	0.1504	0.8398	8.8989	3.0212	4.6912	17.9400 
1157.543	0.0742	0.1689	0.8633	8.8275	3.2684	4.4989	17.9200 
1157.559	0.0747	0.0923	0.8945	8.6737	3.4222	4.5209	17.9400 
1157.580	0.0767	0.1582	0.9404	8.5309	3.5980	4.3945	17.9300 
1157.601	0.0737	0.1816	0.9468	8.4979	3.6914	4.3011	17.9200 
1157.617	0.0615	0.1572	0.9629	8.4979	3.7628	4.2902	17.9200 
1157.637	0.0439	0.2480	1.0400	8.5638	3.8892	4.1858	17.9100 
1157.756	0.0356	0.2285	1.0762	8.6902	3.9606	4.2352	17.9100 
1157.778	0.0273	0.1655	1.1030	8.8055	3.9935	4.4495	17.9200 
1157.779	0.0732	0.2842	1.0557	8.9648	4.0540	4.5154	17.9200 
1157.779	0.1450	0.3374	1.0171	9.2065	4.0759	4.6362	17.9200 
1157.779	0.1465	0.2178	0.9565	9.4263	4.0265	4.8999	17.9000 
1157.779	-0.0020	0.1704	1.0337	9.6515	4.1693	4.9548	17.9100 
1157.779	-0.1489	0.1611	1.2896	9.9316	4.4989	4.9438	17.9100 
1157.796	-0.1377	0.3047	1.3105	10.2393	4.6582	5.0043	17.9100 
1157.912	-0.0786	0.3193	1.0762	10.6293	4.5538	5.2899	17.8900 
1157.930	-0.1177	0.0732	0.7905	10.8435	4.4714	5.6415	17.8900 
1157.930	-0.1846	0.1201	0.9551	10.8984	4.8230	5.5316	17.8900 
1157.931	-0.2383	0.0825	1.1758	10.8600	5.2075	5.3668	17.8800 
1157.931	-0.2231	0.0718	1.2207	10.7281	5.3723	5.2679	17.8900 
1157.931	-0.1392	0.3027	1.2676	10.6348	5.4437	5.1526	17.8800 
1157.946	-0.0703	0.3086	1.0913	10.6293	5.2130	5.4053	17.8900 
1157.975	-0.0151	0.1841	0.9609	10.5304	4.9109	5.9766	17.8900 
1157.993	-0.0093	0.1807	0.9097	10.3381	4.6967	6.4325	17.8800 
1158.004	-0.0107	0.2168	0.7964	10.1294	4.5099	6.6632	17.8800 
1158.111	-0.0225	0.1953	0.7891	9.9207	4.3286	6.8225	17.8800 
1158.132	-0.0503	0.1680	0.7666	9.7119	4.1418	6.8665	17.8800 
1158.132	-0.0532	0.2388	0.8105	9.5416	4.0265	6.7731	17.8800 
1158.132	-0.0405	0.1777	0.8447	9.3768	3.8397	6.7950	17.8600 
1158.132	-0.0190	0.1479	0.8804	9.1351	3.6310	6.8719	17.8700 
1158.132	-0.0132	0.1914	0.9053	8.9264	3.4827	6.7566	17.8800 
1158.143	-0.0298	0.2275	0.8989	8.8330	3.3728	6.4600	17.8600 
1158.175	-0.0586	0.2974	0.9419	8.8330	3.3398	6.1194	17.8700 
1158.196	-0.0640	0.2998	0.9941	8.8220	3.2959	5.9106	17.8700 
1158.197	-0.0474	0.2686	1.0391	8.7616	3.1256	5.8337	17.8500 
1158.217	-0.0391	0.2769	1.0737	8.7012	2.9333	5.7623	17.8700 
1158.324	-0.0308	0.2749	1.0757	8.6957	2.7136	5.6909	17.8500 
1158.352	-0.0308	0.2769	1.0640	8.7286	2.4994	5.6085	17.8700 
1158.353	-0.0371	0.3086	1.0840	8.8110	2.3126	5.5536	17.8700 
1158.353	-0.0156	0.2905	1.1831	8.8879	2.1204	5.6140	17.8600 
1158.353	0.0698	0.3154	1.3110	8.9319	1.8732	5.7733	17.8500 
1158.353	0.1792	0.2495	1.1958	9.0527	1.4337	6.0645	17.8500 
1158.377	0.1792	0.1396	1.1113	9.1516	1.0547	6.3501	17.8600 
1158.377	0.2080	0.1450	1.1328	9.1901	0.9668	6.4600	17.8500 
1158.394	0.1929	0.0718	1.1313	9.1351	0.9448	6.6962	17.8600 
1158.415	0.1411	-0.0942	1.1235	8.9154	0.9393	6.8774	17.8400 
1158.436	0.0615	-0.0742	1.2031	8.6957	1.1536	6.5753	17.8300 
1158.548	-0.0693	0.0928	1.2637	8.6188	1.5216	5.8557	17.8300 
1158.563	-0.0698	0.1602	1.2036	8.5968	1.7963	5.2844	17.8400 
1158.563	0.0332	0.1548	0.8999	8.5693	1.8896	5.1031	17.8300 
1158.563	0.1011	0.1313	0.7559	8.5364	1.9830	5.1691	17.8300 
1158.563	0.1099	0.0552	0.7173	8.4814	2.1863	5.2625	17.8400 
1158.563	0.0669	0.0806	0.7808	8.4045	2.5653	5.0702	17.8300 
1158.579	0.0273	0.1543	0.8213	8.4155	2.9773	4.6143	17.8400 
1158.596	0.0161	0.1074	0.8569	8.4100	3.3398	4.2517	17.8200 
1158.615	0.0220	0.1079	0.8882	8.3331	3.6530	3.9496	17.8100 
1158.636	0.0347	0.1709	0.9448	8.2068	3.9441	3.6694	17.8200 
1158.650	0.0479	0.1279	1.0366	8.0475	4.1144	3.6145	17.8200 
1158.671	0.0781	0.1372	0.9854	7.9431	4.1528	3.5980	17.8200 
1158.777	0.0869	0.2456	1.0161	7.9486	4.2242	3.5046	17.8200 
1158.796	0.0713	0.2192	1.0171	8.0255	4.2462	3.5376	17.8100 
1158.796	0.0347	0.1685	1.0181	8.0969	4.2572	3.6694	17.8000 
1158.796	-0.0068	0.1860	1.1084	8.1683	4.3616	3.7683	17.8000 
1158.796	0.0269	0.2646	1.0981	8.2837	4.4110	3.9056	17.7900 
1158.796	0.1191	0.3467	1.0493	8.4650	4.3671	4.1418	17.7800 
1158.811	0.2100	0.2427	0.9785	8.6682	4.2352	4.5374	17.8000 
1158.830	0.1348	0.1294	0.9648	8.8495	4.2078	4.8065	17.8000 
1158.936	-0.1138	0.1885	1.2871	9.0637	4.5428	4.5593	17.7900 
1158.942	-0.1538	0.3604	1.3545	9.3494	4.8944	4.1473	17.7800 
1158.943	-0.1382	0.2095	1.0581	9.6954	4.8615	4.1913	17.8000 
1158.943	-0.1812	-0.0005	0.9888	9.8273	4.8889	4.3396	17.8000 
1158.943	-0.2275	0.1714	1.0986	9.8273	5.2240	4.0100	17.7800 
1158.961	-0.2402	0.1582	1.1309	9.7998	5.4932	3.8287	17.7700 
1158.977	-0.2178	0.0542	1.1621	9.6735	5.5646	3.8562	17.7900 
1158.994	-0.1294	0.2339	1.1685	9.5416	5.5646	3.8177	17.8000 
1159.010	-0.0669	0.1279	1.0425	9.4647	5.2899	4.1968	17.7800 
1159.030	-0.0498	0.0430	1.0010	9.2999	4.9603	4.7461	17.7600 
1159.048	-0.0420	0.1445	0.8896	9.1626	4.7626	5.0372	17.7700 
1159.150	-0.0562	0.1567	0.8472	9.1077	4.5758	5.3064	17.7900 
1159.159	-0.0645	0.1152	0.8193	9.0363	4.3506	5.6085	17.7700 
1159.159	-0.0483	0.2090	0.8037	9.0033	4.1583	5.7623	17.7500 
1159.159	-0.0376	0.2661	0.7769	9.0637	3.9496	5.9656	17.7600 
1159.159	-0.0459	0.1519	0.7832	9.0857	3.6749	6.3611	17.7700 
1159.188	-0.0352	0.1885	0.8594	9.0033	3.5266	6.5753	17.7700 
1159.210	-0.0425	0.2461	0.9272	8.9594	3.4552	6.5973	17.7900 
1159.211	-0.0435	0.2573	0.9214	8.9648	3.3234	6.6302	17.7700 
1159.227	-0.0469	0.2729	0.9409	8.9868	3.2080	6.7181	17.7500 
1159.248	-0.0352	0.3062	0.9556	9.0637	3.0817	6.8280	17.7400 
1159.267	-0.0195	0.2930	0.9990	9.1241	2.9114	7.0038	17.7500 
1159.367	-0.0117	0.2661	1.0386	9.1626	2.7136	7.1906	17.7800 
1159.376	-0.0015	0.2856	1.0562	9.2395	2.5049	7.3004	17.7600 
1159.376	-0.0029	0.3164	1.0723	9.3933	2.2852	7.4048	17.7600 
1159.376	-0.0020	0.3242	1.0215	9.5636	2.0270	7.5806	17.7800 
1159.376	0.0229	0.3311	1.1157	9.6954	1.8292	7.7948	17.7600 
1159.394	0.1274	0.2964	1.3530	9.7778	1.6260	8.0914	17.7800 
1159.408	0.1890	0.2671	1.2095	9.9316	1.2305	8.4485	17.7900 
1159.430	0.2368	0.1924	1.1133	10.0360	0.9723	8.7177	17.7800 
1159.445	0.2241	0.0952	1.1797	10.0470	0.9174	9.0582	17.7800 
1159.465	0.1367	-0.0503	1.2212	9.9261	0.9613	9.3988	17.7600 
1159.486	0.1079	-0.0029	1.2051	9.7888	1.0876	9.3164	17.7600 
1159.589	0.0215	0.0347	1.2930	9.7064	1.3129	9.0088	17.7500 
1159.612	-0.0288	0.0562	1.2603	9.6625	1.5546	8.6407	17.7500 
1159.612	0.0220	0.2285	1.0161	9.7614	1.7853	8.1573	17.7600 
1159.612	0.0479	0.2139	0.8706	9.9316	1.9940	7.8607	17.7700 
1159.613	0.0708	0.0913	0.6875	10.0745	2.2412	7.7509	17.7500 
1159.613	0.0537	0.1030	0.6958	10.1404	2.6587	7.4542	17.7400 
1159.629	0.0298	0.1572	0.7734	10.1898	3.1531	6.9324	17.7300 
1159.646	0.0181	0.1372	0.8027	10.2118	3.5870	6.4545	17.7400 
1159.669	0.0186	0.1309	0.8369	10.1678	3.9551	6.0370	17.7500 
1159.684	0.0405	0.1670	0.9160	10.0470	4.2627	5.6799	17.7300 
1159.704	0.0166	0.1152	1.0029	9.8657	4.4769	5.4712	17.7400 
1159.796	0.0215	0.1289	0.9995	9.7174	4.5923	5.2734	17.7300 
1159.813	0.0459	0.2651	1.0283	9.6680	4.6912	5.0427	17.7500 
1159.813	0.0469	0.2368	1.0000	9.6790	4.6692	5.0592	17.7300 
1159.813	0.0234	0.1382	0.9756	9.6625	4.5868	5.2844	17.7400 
1159.813	-0.0068	0.1606	1.0073	9.6680	4.5868	5.4712	17.7600 
1159.827	-0.0132	0.2441	1.0615	9.7174	4.5978	5.6360	17.7700 
1159.845	0.0732	0.3462	1.0430	9.8163	4.5044	5.8942	17.7600 
1159.866	0.1934	0.3091	0.9771	9.9152	4.2517	6.3666	17.7300 
1159.886	0.1768	0.1865	0.9707	9.9481	3.9661	6.9104	17.7400 
1159.903	-0.0659	0.1323	1.3091	9.9426	3.9825	7.1027	17.7500 
1159.923	-0.1274	0.3164	1.4199	10.0031	4.1583	6.9543	17.7500 
1160.000	-0.0962	0.2866	1.1187	10.1953	3.9496	7.1246	17.7200 
1160.010	-0.1479	-0.0166	0.9253	10.2667	3.6200	7.6465	17.7400 
1160.010	-0.2319	0.0674	0.9717	10.2228	3.7573	7.4872	17.7300 
1160.010	-0.2603	0.1367	1.1216	10.1788	4.0540	7.3114	17.7500 
1160.026	-0.2490	0.0166	1.2041	10.0525	4.0430	7.5641	17.7400 
1160.046	-0.1309	0.2178	1.2378	9.9042	3.9276	7.8552	17.7300 
1160.065	0.0181	0.2305	1.1377	9.8657	3.5211	8.5693	17.7300 
1160.086	0.0801	0.1250	1.0376	9.8108	2.9553	9.6075	17.7200 
1160.108	0.0972	0.1694	0.9395	9.7174	2.5873	10.3931	17.7200 
1160.204	0.0449	0.1963	0.8179	9.6680	2.3566	10.8820	17.7100 
1160.231	-0.0132	0.1372	0.7817	9.5746	2.2083	11.2500	17.7300 
1160.231	-0.0405	0.2231	0.7813	9.5087	2.1368	11.3928	17.7400 
1160.231	-0.0151	0.2432	0.7837	9.5032	1.9666	11.6620	17.7200 
1160.231	0.0010	0.1353	0.8330	9.3713	1.7413	12.0905	17.7000 
1160.231	0.0195	0.1792	0.8853	9.1956	1.6150	12.2827	17.7200 
1160.247	0.0337	0.2349	0.8916	9.0912	1.5216	12.3267	17.7000 
1160.264	0.0322	0.2354	0.8911	9.0472	1.4557	12.3541	17.7100 
1160.281	0.0254	0.2900	0.9067	9.0692	1.4667	12.2772	17.7200 
1160.305	-0.0024	0.3062	0.9399	9.1461	1.5161	12.1783	17.7200 
1160.321	-0.0234	0.2935	0.9912	9.2285	1.5326	12.0905	17.7000 
1160.426	-0.0063	0.3247	1.0269	9.2944	1.5106	11.9806	17.7000 
1160.440	-0.0171	0.2866	1.0791	9.3658	1.4227	11.9476	17.7100 
1160.440	-0.0215	0.2939	1.0708	9.4482	1.3129	11.8982	17.6900 
1160.440	0.0039	0.4072	1.0825	9.5911	1.1920	11.8048	17.6800 
1160.440	0.0449	0.3779	1.1299	9.7229	0.9943	11.8488	17.6800 
1160.440	0.1753	0.3140	1.3198	9.7559	0.7306	11.9971	17.6900 
1160.461	0.2056	0.2529	1.2119	9.8163	0.3571	12.0905	17.6800 
1160.485	0.2153	0.2261	1.1782	9.8602	0.1758	11.9806	17.6800 
1160.501	0.2329	0.1631	1.1914	9.8163	0.0934	12.0081	17.6900 
1160.522	0.1855	-0.0835	1.1880	9.5856	0.0000	12.3102	17.6900 
1160.628	0.1489	-0.1211	1.1494	9.2999	0.0000	12.3157	17.6900 
1160.641	-0.0229	-0.0322	1.2876	9.1187	0.2856	11.7169	17.6700 
1160.641	-0.0786	0.0962	1.2881	9.0747	0.6812	10.8270	17.6600 
1160.641	0.0068	0.2017	1.0234	9.1187	0.8789	10.1678	17.6700 
1160.641	0.0630	0.1377	0.8501	9.1571	0.9393	9.9042	17.6600 
1160.641	0.1230	0.1011	0.6919	9.1461	1.0876	9.7284	17.6600 
1160.660	0.1113	0.0767	0.7241	9.1077	1.4063	9.4373	17.6700 
1160.683	0.0508	0.0361	0.8008	9.0308	1.8018	8.9539	17.6600 
1160.701	0.0278	0.0854	0.8384	9.0033	2.2247	8.2343	17.6900 
1160.721	0.0566	0.1440	0.8657	9.0253	2.5598	7.5641	17.7000 
1160.741	0.0854	0.1323	0.8809	9.0308	2.7246	7.1521	17.6800 
1160.843	0.0957	0.1260	0.9258	8.9594	2.8125	6.8774	17.6700 
1160.858	0.0757	0.1577	0.9980	8.8660	2.9169	6.5424	17.6700 
1160.859	0.0933	0.2329	0.9663	8.8605	2.9718	6.1908	17.6500 
1160.859	0.0815	0.1787	0.9922	8.8715	2.9938	6.0260	17.6800 
1160.859	0.0552	0.1680	1.0176	8.9154	3.0542	5.9106	17.6700 
1160.859	0.0352	0.2334	1.0454	9.0308	3.1970	5.7458	17.6700 
1160.879	0.0747	0.2607	1.1123	9.1461	3.3014	5.7568	17.6700 
1160.899	0.1172	0.2646	1.0557	9.2395	3.3124	5.9161	17.6700 
1160.919	0.1997	0.3188	0.9976	9.3658	3.3289	6.0754	17.6900 
1160.936	0.1592	0.2310	1.0068	9.5142	3.3838	6.2567	17.6700 
1160.956	0.0571	0.1392	1.0015	9.6625	3.5101	6.3611	17.6600 
1161.046	-0.1367	0.1733	1.4185	9.8218	3.9441	6.2018	17.6800 
1161.078	-0.0610	0.4028	1.2290	10.1019	4.0814	5.9875	17.6800 
1161.078	-0.0918	0.1123	0.9722	10.3931	3.9771	6.3007	17.6700 
1161.078	-0.1914	-0.1304	0.9971	10.3546	4.2023	6.2292	17.6700 
1161.079	-0.2700	0.1826	1.1626	10.3491	4.8065	5.4437	17.6500 
1161.079	-0.2568	0.2280	1.2261	10.3986	5.1471	5.1361	17.6600 
1161.098	-0.1182	0.1353	1.2144	10.3491	5.0977	5.2954	17.6700 
1161.210	-0.0239	0.2603	1.2236	10.3271	4.9438	5.4218	17.6700 
1161.227	0.0474	0.2690	1.0122	10.3711	4.6527	5.7184	17.6600 
1161.227	0.0571	0.1899	0.8755	10.3766	4.3506	6.1304	17.6600 
1161.227	-0.0024	0.1470	0.7720	10.3052	4.2078	6.2677	17.6500 
1161.227	-0.0435	0.1753	0.7598	10.2008	4.1913	6.0864	17.6600 
1161.227	-0.0435	0.2407	0.7627	10.1074	4.1418	5.8008	17.6400 
1161.245	-0.0322	0.1855	0.7720	10.0031	3.9880	5.6799	17.6500 
1161.259	-0.0190	0.1831	0.7773	9.8383	3.8177	5.5426	17.6500 
1161.279	-0.0151	0.2173	0.8311	9.6515	3.6969	5.3339	17.6400 
1161.297	-0.0190	0.1606	0.9326	9.4318	3.5815	5.1691	17.6500 
1161.319	-0.0156	0.1870	0.9424	9.2560	3.4662	4.8669	17.6400 
1161.426	-0.0244	0.3057	0.9336	9.2230	3.4113	4.4495	17.6400 
1161.443	-0.0396	0.2749	0.9438	9.2120	3.3618	4.1693	17.6300 
1161.443	-0.0581	0.2432	0.9902	9.1626	3.3069	3.9496	17.6300 
1161.443	-0.0654	0.2793	1.0439	9.1241	3.2684	3.6584	17.6500 
1161.443	-0.0718	0.2437	1.1069	9.1132	3.1586	3.4607	17.6400 
1161.443	-0.0718	0.2529	1.0874	9.1351	3.0048	3.3234	17.6300 
1161.462	-0.0708	0.3315	1.0879	9.2340	2.8510	3.2465	17.6400 
1161.477	-0.0342	0.2847	1.1226	9.3219	2.6202	3.3728	17.6400 
1161.496	0.1069	0.3174	1.2578	9.3658	2.3346	3.5266	17.6500 
1161.515	0.1748	0.2876	1.2363	9.4537	1.9226	3.7848	17.6200 
1161.536	0.2051	0.1138	1.1953	9.4867	1.5051	4.1638	17.6200 
1161.552	0.2378	0.1582	1.1289	9.4757	1.2524	4.4275	17.6100 
1161.653	0.2075	0.0249	1.1406	9.3713	1.1041	4.7461	17.6100 
1161.673	0.1665	-0.1016	1.1387	9.1132	0.9668	5.0153	17.6100 
1161.673	0.0356	-0.0137	1.2373	8.8879	1.0931	4.6802	17.5900 
1161.673	-0.0317	0.1133	1.2695	8.8055	1.3623	3.9716	17.6000 
1161.674	-0.0142	0.1763	1.0864	8.8220	1.4996	3.4662	17.6000 
1161.674	0.0361	0.1616	0.9146	8.8550	1.5436	3.2190	17.6100 
1161.693	0.0869	0.0996	0.7373	8.8495	1.6809	3.1750	17.6000 
1161.713	0.0830	0.0703	0.7241	8.8385	1.9446	3.1146	17.6000 
1161.734	0.0581	0.0986	0.7695	8.8110	2.3401	2.8345	17.6000 
1161.751	0.0371	0.1177	0.8286	8.7836	2.7466	2.4554	17.5800 
1161.771	0.0322	0.0967	0.8501	8.7231	3.0267	2.1533	17.5900 
1161.886	0.0444	0.0742	0.8682	8.5968	3.2410	1.9501	17.6000 
1161.910	0.0513	0.0869	0.9126	8.4375	3.4332	1.8073	17.5800 
1161.911	0.0317	0.1226	1.0029	8.2947	3.5925	1.6809	17.6000 
1161.911	0.0474	0.1699	1.0405	8.2068	3.6584	1.6425	17.5900 
1161.911	0.0645	0.1626	1.0522	8.1738	3.5980	1.8237	17.5800 
1161.911	0.0728	0.1602	1.0229	8.2013	3.4607	2.1039	17.5800 
1161.924	0.0640	0.1914	1.0200	8.3002	3.3673	2.4005	17.5800 
1162.021	0.0552	0.1929	1.0620	8.4100	3.3508	2.7960	17.5700 
1162.046	0.1006	0.2524	1.0679	8.5254	3.3234	3.2465	17.5700 
1162.046	0.1548	0.3149	1.0591	8.7067	3.2849	3.7079	17.5800 
1162.046	0.1846	0.2451	1.0156	8.9319	3.1860	4.2517	17.5800 
1162.046	0.0303	0.0405	1.2104	9.1516	3.2355	4.8395	17.5900 
1162.046	-0.1343	0.2510	1.3184	9.3823	3.5046	4.7900	17.5700 
1162.069	-0.1382	0.4375	1.1885	9.7504	3.6530	4.7516	17.5800 
1162.087	-0.1738	-0.0200	0.9414	9.9701	3.5376	5.2625	17.5700 
1162.111	-0.1841	0.0586	1.0132	10.0415	3.7573	5.2295	17.5700 
1162.133	-0.2080	0.1807	1.1938	10.1569	4.0320	5.1691	17.5700 
1162.134	-0.2139	0.0405	1.1729	10.1569	4.0649	5.4053	17.5600 
1162.239	-0.1025	0.2798	1.2402	10.1129	4.0979	5.4932	17.5600 
1162.259	-0.0225	0.3145	1.1191	10.1569	3.8507	5.8722	17.5500 
1162.259	0.0254	0.1235	0.9492	10.0964	3.4552	6.6412	17.5600 
1162.259	0.0347	0.1455	0.8228	9.9976	3.1915	7.1521	17.5600 
1162.259	-0.0078	0.2085	0.7690	9.9316	3.0981	7.3224	17.5700 
1162.259	-0.0352	0.1948	0.7529	9.8767	3.0157	7.4103	17.5500 
1162.289	-0.0269	0.2017	0.7383	9.7943	2.9169	7.4487	17.5500 
1162.309	-0.0308	0.1694	0.7900	9.6570	2.8290	7.4872	17.5600 
1162.330	-0.0366	0.1729	0.8652	9.4647	2.7905	7.4323	17.5500 
1162.330	-0.0356	0.1743	0.9028	9.2560	2.8015	7.2675	17.5400 
1162.351	-0.0220	0.2080	0.8696	9.0857	2.8345	6.9873	17.5400 
1162.444	-0.0225	0.2686	0.8896	9.0308	2.9114	6.6522	17.5600 
1162.459	-0.0371	0.2739	0.9443	9.0253	2.9828	6.4160	17.5500 
1162.459	-0.0347	0.2583	0.9810	8.9703	2.9883	6.2567	17.5600 
1162.459	-0.0308	0.3223	1.0264	8.9154	2.9828	5.9985	17.5400 
1162.459	-0.0186	0.3491	1.0605	8.9154	2.9498	5.7458	17.5500 
1162.486	-0.0337	0.2915	1.0747	8.9594	2.8619	5.6195	17.5400 
1162.507	-0.0459	0.2969	1.0737	9.0308	2.7795	5.4987	17.5400 
1162.528	-0.0654	0.3345	1.1079	9.1077	2.7356	5.3778	17.5400 
1162.548	-0.0225	0.3232	1.1304	9.1791	2.6422	5.3448	17.5500 
1162.571	0.0977	0.3086	1.2783	9.2285	2.4664	5.4163	17.5400 
1162.571	0.1431	0.2271	1.2656	9.3164	2.1478	5.6250	17.5500 
1162.591	0.1343	0.1157	1.2456	9.3988	1.8347	5.9161	17.5400 
1162.611	0.1450	0.1426	1.1289	9.5032	1.6095	6.2018	17.5300 
1162.724	0.1323	-0.0015	1.0371	9.5197	1.4612	6.6028	17.5400 
1162.743	0.1436	-0.0752	1.0811	9.3329	1.4227	6.8500	17.5400 
1162.743	0.0596	0.0396	1.2070	9.1681	1.6589	6.4929	17.5300 
1162.743	-0.0034	0.1245	1.2197	9.1351	1.9556	5.8612	17.5400 
1162.743	-0.0322	0.1523	1.1089	9.1846	2.1643	5.3229	17.5300 
1162.743	-0.0142	0.1504	0.9238	9.2120	2.2961	4.9493	17.5200 
1162.759	0.0210	0.1333	0.8340	9.1956	2.4390	4.7406	17.5200 
1162.788	0.0840	0.0835	0.7510	9.1406	2.5983	4.6912	17.5300 
1162.802	0.0845	0.0713	0.7686	9.0527	2.8235	4.5813	17.5100 
1162.831	0.0420	0.1240	0.8486	8.9978	3.1421	4.2352	17.5200 
1162.831	0.0342	0.1382	0.8696	8.9484	3.4442	3.8562	17.5200 
1162.956	0.0293	0.1353	0.9067	8.8275	3.6969	3.5651	17.5300 
1162.983	0.0391	0.1191	0.9619	8.5803	3.9331	3.3838	17.5000 
1162.983	0.0327	0.1182	1.0283	8.3167	4.1364	3.2355	17.5100 
1162.983	0.0527	0.1787	1.0513	8.1409	4.2957	3.0872	17.5100 
1162.983	0.0811	0.1958	1.0483	8.0420	4.3671	3.1091	17.5200 
1162.983	0.0815	0.1465	0.9692	7.9816	4.3616	3.2629	17.5000 
1162.984	0.0278	0.1494	1.0122	7.9706	4.4604	3.3673	17.5200 
1162.998	-0.0190	0.1460	1.0776	7.9871	4.6143	3.4662	17.5100 
1163.109	0.0376	0.2778	1.0771	8.0365	4.7296	3.6145	17.5200 
1163.124	0.1323	0.3296	1.0488	8.1519	4.7351	3.9825	17.5000 
1163.124	0.2046	0.2222	1.0132	8.2672	4.6417	4.5868	17.5100 
1163.124	0.0928	0.0820	1.0586	8.3716	4.6637	5.0592	17.5100 
1163.124	-0.1675	0.1323	1.3604	8.5144	5.0757	4.8779	17.5000 
1163.124	-0.1655	0.4092	1.3218	8.7891	5.4163	4.4714	17.5000 
1163.124	-0.1611	0.2017	0.9888	9.0802	5.3339	4.6692	17.5100 
1163.147	-0.1572	0.0474	0.8291	9.1296	5.3394	4.7681	17.5100 
1163.167	-0.2119	0.0679	0.9912	9.0747	5.6964	4.4989	17.5100 
1163.187	-0.2510	-0.0112	1.1221	8.9319	6.0370	4.2627	17.5100 
1163.202	-0.2153	0.1567	1.3237	8.7177	6.2677	3.9880	17.4800 
1163.311	-0.1440	0.2246	1.2476	8.6188	6.1853	3.9496	17.5100 
1163.326	-0.0518	0.1416	1.0498	8.5913	5.8557	4.3121	17.5100 
1163.326	-0.0317	0.1382	1.0010	8.5529	5.5481	4.7681	17.4900 
1163.327	-0.0220	0.1343	0.8218	8.5089	5.2240	5.1855	17.4900 
1163.327	-0.0127	0.1499	0.7373	8.4430	4.9164	5.4712	17.5000 
1163.327	-0.0342	0.1621	0.7554	8.3606	4.6857	5.6140	17.4900 
1163.344	-0.0293	0.1948	0.7520	8.3112	4.4440	5.6360	17.4800 
1163.363	-0.0293	0.2070	0.7939	8.2562	4.2078	5.6689	17.4900 
1163.384	-0.0366	0.1533	0.8325	8.1354	3.9771	5.7568	17.5000 
1163.404	-0.0552	0.1377	0.8975	7.9431	3.8177	5.7129	17.4900 
1163.423	-0.0532	0.1719	0.9331	7.7783	3.7134	5.5096	17.4900 
1163.528	-0.0337	0.2573	0.9580	7.7069	3.6145	5.2350	17.4900 
1163.541	-0.0298	0.2881	0.9673	7.6959	3.4991	5.0153	17.5000 
1163.542	-0.0366	0.2568	0.9556	7.6904	3.3453	4.9493	17.4800 
1163.542	-0.0361	0.2773	0.9951	7.6685	3.2080	4.8669	17.4800 
1163.542	0.0024	0.3013	1.0771	7.6190	3.0542	4.7900	17.4900 
1163.542	0.0054	0.2324	1.0850	7.5641	2.7960	4.7955	17.4800 
1163.561	-0.0405	0.2373	1.0537	7.5476	2.5763	4.6527	17.4800 
1163.584	-0.0742	0.3105	1.0742	7.6080	2.4719	4.3506	17.4900 
1163.603	-0.0640	0.3208	1.0957	7.6794	2.3181	4.2078	17.5000 
1163.625	0.0361	0.2573	1.2256	7.6630	2.0490	4.3231	17.4800 
1163.726	0.1211	0.2183	1.2866	7.6410	1.6699	4.6527	17.4800 
1163.742	0.1519	0.1523	1.2319	7.7234	1.2469	5.0482	17.4700 
1163.742	0.1646	0.1348	1.1646	7.8058	0.9174	5.4218	17.4700 
1163.742	0.1802	0.0781	1.0479	7.8662	0.6647	5.9052	17.4900 
1163.742	0.1660	-0.0718	1.1494	7.7509	0.5823	6.5259	17.4800 
1163.742	0.1533	-0.0361	1.1587	7.5751	0.6537	6.6412	17.4800 
1163.760	0.0967	0.0654	1.2539	7.4982	0.9613	6.2402	17.4700 
1163.782	-0.0059	0.0259	1.1890	7.4652	1.2305	5.8008	17.4700 
1163.802	-0.0146	0.1235	1.0811	7.4377	1.5216	5.1965	17.4700 
1163.822	0.0225	0.1675	0.9438	7.4158	1.7468	4.8230	17.4500 
1163.922	0.0454	0.0381	0.8110	7.3114	1.8951	4.7736	17.4500 
1163.941	0.0703	0.0649	0.7671	7.2125	2.1808	4.6198	17.4700 
1163.941	0.0552	0.0991	0.7769	7.2015	2.5378	4.3286	17.4500 
1163.941	0.0317	0.0557	0.8154	7.1960	2.8839	4.0155	17.4600 
1163.942	0.0215	0.0625	0.8521	7.1906	3.2080	3.6420	17.4400 
1163.942	0.0161	0.1050	0.9492	7.1741	3.5046	3.2794	17.4600 
1163.958	0.0195	0.1001	0.9844	7.1136	3.7244	3.0652	17.4600 
1163.983	0.0493	0.1147	0.9932	7.0148	3.8837	2.9553	17.4500 
1164.002	0.0635	0.1631	1.0474	6.9598	4.0430	2.8839	17.4500 
1164.023	0.0908	0.1982	1.0156	6.9653	4.1254	2.8949	17.4500 
1164.138	0.0908	0.1968	0.9932	7.0093	4.1968	2.9608	17.4400 
1164.158	0.0308	0.1440	1.0229	7.0697	4.3066	3.0762	17.4400 
1164.158	-0.0205	0.1333	1.0483	7.1246	4.4714	3.1476	17.4200 
1164.158	-0.0210	0.2495	1.0703	7.2235	4.6637	3.1421	17.4400 
1164.158	0.0459	0.3037	1.0293	7.3993	4.7351	3.3234	17.4200 
1164.158	0.1494	0.2373	0.9844	7.5861	4.6747	3.7628	17.4400 
1164.158	0.1421	0.1997	0.9473	7.7454	4.6362	4.1254	17.4300 
1164.180	-0.0078	0.1797	1.0791	7.9486	4.7516	4.2682	17.4200 
1164.199	-0.1235	0.1143	1.2583	8.1958	4.9658	4.3781	17.4200 
1164.216	-0.1001	0.2837	1.1772	8.4979	5.0647	4.4165	17.4000 
1164.235	-0.1016	0.2676	1.0488	8.8770	4.9713	4.5758	17.4200 
1164.256	-0.1460	0.0591	0.9263	9.1022	4.8944	4.7900	17.4100 
1164.345	-0.2139	0.0845	1.0483	9.1791	5.0922	4.6417	17.4200 
1164.356	-0.2671	0.0522	1.1904	9.1351	5.3284	4.4440	17.4100 
1164.356	-0.2515	0.0796	1.2520	9.0308	5.4437	4.3066	17.4000 
1164.357	-0.1240	0.2573	1.2759	8.9539	5.4053	4.3341	17.4100 
1164.357	-0.0518	0.1689	1.1543	8.8824	5.0922	4.7516	17.4000 
1164.378	0.0083	0.1504	0.9678	8.7451	4.7626	5.2295	17.3800 
1164.399	0.0142	0.1958	0.8662	8.6188	4.5428	5.5316	17.3900 
1164.510	-0.0317	0.1304	0.7710	8.4924	4.3561	5.7513	17.3900 
1164.527	-0.0645	0.1284	0.7856	8.3386	4.2517	5.8447	17.3900 
1164.527	-0.0708	0.2031	0.8091	8.2397	4.1473	5.8282	17.3900 
1164.527	-0.0537	0.1812	0.8179	8.1683	3.9771	5.9491	17.3900 
1164.527	-0.0332	0.1523	0.8623	8.0090	3.8123	6.1414	17.3800 
1164.527	0.0083	0.2090	0.9438	7.8387	3.7299	6.1963	17.3800 
1164.544	0.0244	0.1836	0.9111	7.7234	3.6035	6.1853	17.3700 
1164.561	0.0171	0.2100	0.8481	7.6904	3.5321	5.9161	17.3800 
1164.576	-0.0444	0.2554	0.8574	7.7673	3.6310	5.4657	17.3800 
1164.595	-0.1235	0.2671	0.9580	7.8607	3.7683	5.0867	17.3900 
1164.618	-0.1260	0.2617	1.0029	7.9047	3.7738	4.8395	17.3900 
1164.733	-0.0791	0.2495	1.0562	7.9211	3.6255	4.7241	17.3700 
1164.753	-0.0410	0.2402	1.0493	7.9761	3.3783	4.6802	17.3900 
1164.753	-0.0269	0.2524	1.0381	8.1024	3.1311	4.5923	17.3800 
1164.753	-0.0459	0.2817	1.0454	8.3112	2.9279	4.4440	17.3900 
1164.753	-0.0449	0.2769	1.1733	8.5199	2.7521	4.3396	17.3800 
1164.753	0.0283	0.2944	1.3599	8.6847	2.5653	4.3011	17.3700 
1164.753	0.1606	0.2705	1.3125	8.8824	2.1533	4.4165	17.3700 
1164.773	0.1772	0.1367	1.2759	9.0472	1.7523	4.6307	17.3800 
1164.793	0.1821	0.0957	1.1558	9.1296	1.5491	4.7406	17.3800 
1164.813	0.1592	0.0498	1.0967	9.1241	1.4777	4.7900	17.3800 
1164.835	0.1831	0.0215	1.0571	8.9594	1.4667	4.7241	17.3900 
1164.951	0.1431	-0.0605	1.1431	8.7122	1.4996	4.6582	17.3800 
1164.973	0.0015	-0.0576	1.2109	8.4705	1.6534	4.2188	17.3700 
1164.973	-0.0542	0.0972	1.1982	8.3661	1.9281	3.4497	17.3700 
1164.973	-0.0259	0.1069	0.9824	8.3496	2.0270	3.0103	17.3800 
1164.974	0.0186	-0.0073	0.8838	8.2123	2.0764	2.9059	17.3900 
1164.974	0.0801	0.0513	0.8271	8.0310	2.2467	2.7795	17.3800 
1164.974	0.0996	0.1167	0.8525	7.9376	2.5323	2.5598	17.3500 
1164.996	0.0737	0.0054	0.8232	7.8552	2.7466	2.4390	17.3600 
1165.013	0.0435	0.0352	0.8301	7.7948	3.0487	2.1149	17.3600 
1165.034	0.0366	0.1553	0.8770	7.8223	3.4113	1.6479	17.3600 
1165.054	0.0405	0.1221	0.9111	7.8113	3.6749	1.4282	17.3600 
1165.150	0.0459	0.0400	0.9419	7.7124	3.8507	1.3898	17.3600 
1165.173	0.0566	0.1270	0.9619	7.6685	4.0594	1.2415	17.3600 
1165.173	0.0737	0.1958	0.9937	7.7234	4.2352	1.1481	17.3800 
1165.173	0.0737	0.1270	0.9731	7.7948	4.2957	1.2689	17.3500 
1165.173	0.0474	0.1968	1.0229	7.8992	4.4055	1.3184	17.3400 
1165.173	0.0225	0.1997	1.0337	8.0859	4.5319	1.4117	17.3700 
1165.194	-0.0200	0.1099	1.0205	8.2672	4.6033	1.7303	17.3800 
1165.211	0.0015	0.2651	1.0762	8.4705	4.7406	1.9391	17.3600 
1165.230	0.1567	0.3887	1.0137	8.7561	4.7516	2.3346	17.3500 
1165.252	0.1895	0.2065	0.9863	8.9758	4.6143	3.0817	17.3600 
1165.278	0.0269	0.1377	1.0142	9.1077	4.6912	3.5266	17.3400 
1165.294	-0.1113	0.2437	1.1812	9.3494	5.0867	3.5431	17.3300 
1165.309	-0.2041	0.1807	1.3179	9.7174	5.3394	3.8617	17.3600 
1165.332	-0.1187	0.3120	1.1826	10.0909	5.3174	4.2902	17.3500 
1165.445	-0.0645	0.3105	1.1479	10.4315	5.1581	4.9603	17.3500 
1165.460	-0.0444	0.1675	0.8496	10.5743	4.9329	5.5316	17.3400 
1165.460	-0.1382	0.1025	0.9434	10.5359	5.1031	5.6744	17.3400 
1165.460	-0.2900	-0.0151	1.0879	10.3821	5.4053	5.4767	17.3400 
1165.460	-0.3208	0.1240	1.3066	10.1733	5.7788	5.1251	17.3500 
1165.460	-0.1123	0.3486	1.2656	10.0085	5.6470	5.2679	17.3300 
1165.480	-0.0088	0.1440	1.0972	9.7778	5.0372	6.1304	17.3300 
1165.490	0.0508	0.1411	0.9810	9.4922	4.6143	6.7896	17.3400 
1165.589	0.0469	0.2319	0.9185	9.2999	4.3616	7.0807	17.3400 
1165.608	0.0005	0.0786	0.8140	9.0802	4.1089	7.3608	17.3300 
1165.608	-0.0117	0.1313	0.7554	8.8275	3.9935	7.2290	17.3300 
1165.608	-0.0327	0.2231	0.7871	8.6682	3.9551	6.9049	17.3300 
1165.608	-0.0288	0.2065	0.8232	8.4924	3.8782	6.6467	17.3400 
1165.608	-0.0190	0.1289	0.8970	8.2343	3.7573	6.4600	17.3300 
1165.627	-0.0264	0.1040	0.9614	7.9431	3.6639	6.1798	17.3400 
1165.647	-0.0308	0.1851	1.0166	7.7289	3.5980	5.6470	17.3300 
1165.669	-0.0371	0.2354	1.0078	7.5861	3.5266	5.0482	17.3300 
1165.692	-0.0493	0.2134	0.9761	7.4707	3.4772	4.5813	17.3200 
1165.800	-0.0752	0.1694	0.9336	7.3553	3.4607	4.1858	17.3200 
1165.826	-0.0981	0.1797	0.9629	7.2455	3.5101	3.7354	17.3200 
1165.826	-0.0991	0.1782	0.9756	7.1631	3.4991	3.3289	17.3400 
1165.826	-0.0674	0.2090	0.9868	7.1466	3.3783	2.9773	17.3200 
1165.826	-0.0581	0.2354	1.0059	7.2070	3.2025	2.6697	17.3300 
1165.826	-0.0737	0.2100	1.0337	7.3004	3.0157	2.4390	17.3300 
1165.847	-0.0737	0.2412	0.9946	7.4048	2.8784	2.1918	17.3200 
1165.870	-0.0571	0.2983	0.9683	7.5366	2.7740	1.9666	17.3300 
1165.870	-0.0215	0.2612	1.0156	7.6520	2.6202	1.9061	17.3300 
1165.892	0.0171	0.1597	1.2456	7.6849	2.4390	1.9556	17.3300 
1165.906	0.0474	0.2217	1.2935	7.7234	2.2192	1.8842	17.3300 
1166.008	0.0781	0.1870	1.3750	7.8278	1.9446	1.8951	17.3400 
1166.025	0.1025	0.0991	1.2871	7.8607	1.5875	2.1588	17.3300 
1166.025	0.2041	0.1665	0.9717	7.8552	1.2360	2.4884	17.3200 
1166.025	0.2417	0.0298	0.9414	7.7509	0.9668	3.0981	17.3300 
1166.025	0.2041	-0.2861	1.1533	7.4377	0.8514	3.8782	17.3300 
1166.042	0.0591	-0.1982	1.2622	7.1356	1.0437	3.8727	17.3300 
1166.064	-0.0469	0.2588	1.2456	7.1521	1.4447	2.8235	17.3300 
1166.085	0.0264	0.2720	1.0513	7.2894	1.5381	2.2852	17.3200 
1166.105	0.0308	-0.1470	0.9233	7.1082	1.4008	2.5873	17.3400 
1166.105	0.0112	-0.0161	0.8521	6.7731	1.4996	2.4390	17.3100 
1166.197	0.0610	0.2173	0.9019	6.6962	1.8787	1.9885	17.3100 
1166.207	0.0664	-0.0942	0.8564	6.5808	2.0105	2.2028	17.3100 
1166.207	0.0459	-0.0093	0.8989	6.3501	2.2577	2.1368	17.3100 
1166.207	0.0425	0.2271	0.9712	6.3501	2.6917	1.4337	17.3200 
1166.207	0.0210	-0.0596	0.9634	6.3116	2.8619	1.3403	17.3100 
1166.224	0.0186	-0.0166	0.9888	6.1304	3.0542	1.2360	17.3100 
1166.249	0.0142	0.1797	1.0947	6.0864	3.3728	0.9064	17.3000 
1166.265	0.0684	0.0313	0.9678	6.0699	3.3563	1.1810	17.3000 
1166.285	0.0688	-0.0176	0.9644	5.9656	3.3453	1.6095	17.2900 
1166.309	0.0293	0.1274	1.0493	5.9875	3.4607	1.8457	17.3000 
1166.415	0.0366	0.0708	1.0005	6.0205	3.4167	2.3236	17.3000 
1166.443	0.0303	0.0479	1.0000	6.0370	3.3893	2.7905	17.3000 
1166.443	0.0347	0.1465	1.0352	6.1633	3.4607	3.0817	17.3000 
1166.443	0.0996	0.1230	0.9663	6.3226	3.4222	3.5046	17.3000 
1166.443	0.1206	0.1382	0.9624	6.4874	3.3838	3.8342	17.2900 
1166.443	0.1006	0.2305	0.9917	6.6852	3.3893	3.9496	17.2900 
1166.464	0.0620	0.2017	1.0166	6.8719	3.3618	4.0814	17.3000 
1166.464	-0.0068	0.0703	1.1235	6.9708	3.2904	4.2352	17.2800 
1166.481	-0.0459	0.1538	1.2510	7.1027	3.3453	4.1968	17.3000 
1166.505	-0.0513	0.2710	1.3394	7.3114	3.4497	4.3286	17.2800 
1166.527	-0.0288	0.1953	1.2896	7.4707	3.4332	4.8285	17.3000 
1166.636	0.0503	0.2207	1.0000	7.6190	3.3179	5.2954	17.2800 
1166.664	0.0366	0.2295	0.7905	7.8168	3.2245	5.6525	17.3000 
1166.664	-0.1372	-0.0337	0.7739	7.8662	3.3618	5.9766	17.2900 
1166.664	-0.2705	-0.1050	0.9092	7.8113	3.7408	5.8722	17.2900 
1166.664	-0.2573	0.1606	1.1309	7.7618	4.0869	5.6635	17.2800 
1166.664	-0.1782	0.1841	1.1719	7.7069	4.1473	5.9711	17.2900 
1166.684	-0.0215	0.1001	1.1079	7.5256	3.9661	6.5863	17.2800 
1166.684	0.0391	0.1753	1.0747	7.2894	3.8617	6.9104	17.2700 
1166.707	0.0103	0.2266	1.1250	7.0752	3.9331	7.0422	17.2700 
1166.721	-0.0195	0.1001	0.9893	6.8500	3.9276	7.2675	17.2800 
1166.740	-0.0840	0.0742	0.9307	6.5698	4.0155	7.2400	17.2700 
1166.843	-0.1089	0.1772	0.9551	6.3556	4.1968	6.9379	17.2700 
1166.858	-0.0957	0.1357	0.9707	6.1469	4.3011	6.8555	17.2700 
1166.858	-0.0854	0.0420	0.9419	5.8722	4.3671	6.9434	17.2700 
1166.858	-0.0918	0.0728	0.9771	5.6085	4.5374	6.8060	17.2700 
1166.858	-0.1138	0.0649	0.9575	5.4327	4.7296	6.4819	17.2700 
1166.877	-0.1616	0.0200	0.9478	5.3229	4.9329	5.9985	17.2500 
1166.894	-0.1870	0.0767	0.9766	5.2679	5.1691	5.2899	17.2700 
1166.917	-0.1528	0.1182	0.9717	5.2789	5.3064	4.5593	17.2700 
1166.939	-0.1138	0.0742	0.9854	5.2789	5.3394	4.0045	17.2700 
1166.939	-0.0928	-0.0044	1.0684	5.2240	5.3284	3.5541	17.2600 
1166.961	-0.0771	0.0918	1.0947	5.1801	5.3503	2.9883	17.2600 
1167.057	-0.0708	0.0752	1.1636	5.1691	5.3668	2.5653	17.2500 
1167.075	-0.0537	0.0347	1.1748	5.1086	5.3174	2.3236	17.2500 
1167.075	0.0068	0.1455	1.0791	5.0537	5.2130	2.1204	17.2500 
1167.075	0.0288	0.1011	1.0117	5.0372	4.9713	2.0929	17.2600 
1167.075	0.0322	0.0288	0.9106	4.9768	4.6472	2.2028	17.2600 
1167.098	0.0317	0.0811	0.9731	4.9219	4.4385	2.1588	17.2700 
1167.190	0.0391	0.0542	0.9893	4.9164	4.2133	2.1753	17.2500 
1167.209	0.0571	0.0127	1.0308	4.8615	4.0210	2.1588	17.2500 
1167.209	0.0542	0.1011	1.0991	4.8450	3.9551	1.9116	17.2400 
1167.209	0.0576	0.0903	1.0771	4.8505	3.8452	1.7688	17.2500 
1167.209	0.0654	0.0386	1.0337	4.8010	3.7244	1.7249	17.2500 
1167.209	0.0601	0.0669	1.0420	4.7571	3.6969	1.5765	17.2400 
1167.226	0.0449	0.0742	1.0322	4.7351	3.6694	1.4227	17.2500 
1167.247	0.0439	0.0894	1.0093	4.6912	3.6420	1.3074	17.2500 
1167.276	0.0371	0.0674	1.0156	4.6143	3.6090	1.2689	17.2400 
1167.298	0.0356	0.0361	1.0420	4.4934	3.6035	1.2469	17.2500 
1167.319	0.0586	0.0718	1.0430	4.4000	3.6255	1.1536	17.2500 
1167.319	0.0303	0.0854	1.0088	4.3396	3.6584	1.0272	17.2300 
1167.341	0.0063	0.0781	1.0034	4.2792	3.7134	0.9064	17.2200 
1167.358	-0.0034	0.0625	1.0488	4.2133	3.7958	0.8185	17.2400 
1167.457	-0.0117	0.0801	1.0542	4.1858	3.8507	0.7306	17.2200 
1167.476	-0.0093	0.1113	1.0532	4.2023	3.8892	0.6757	17.2200 
1167.476	0.0024	0.1084	1.0352	4.2297	3.8892	0.7031	17.2300 
1167.476	-0.0015	0.0923	1.0244	4.2517	3.8672	0.7800	17.2300 
1167.476	-0.0049	0.1216	1.0439	4.2792	3.8617	0.8350	17.2300 
1167.490	0.0044	0.1377	1.0278	4.3121	3.8177	0.9668	17.2200 
1167.508	0.0093	0.1069	1.0205	4.3341	3.7573	1.1865	17.2400 
1167.527	0.0117	0.1006	1.0288	4.3286	3.7024	1.4063	17.2300 
1167.541	0.0205	0.1401	1.0122	4.3451	3.6475	1.5656	17.2100 
1167.557	0.0220	0.1152	1.0059	4.3671	3.5815	1.7413	17.2100 
1167.574	0.0171	0.1113	1.0117	4.3726	3.5376	1.8842	17.2100 
1167.673	0.0107	0.1528	1.0327	4.3890	3.5211	1.9611	17.2400 
1167.690	0.0088	0.1299	1.0400	4.4055	3.4827	2.0874	17.2400 
1167.690	0.0127	0.1240	1.0464	4.4055	3.4442	2.2192	17.2300 
1167.690	0.0171	0.1460	1.0396	4.4220	3.4058	2.3236	17.2300 
1167.690	0.0190	0.1113	1.0103	4.4440	3.3453	2.4829	17.2300 
1167.710	0.0166	0.1245	1.0137	4.4495	3.3124	2.6038	17.2200 
1167.729	0.0161	0.1519	1.0127	4.4714	3.3069	2.6917	17.2200 
1167.743	0.0083	0.1250	1.0103	4.4934	3.2959	2.8070	17.2300 
1167.760	0.0024	0.1494	1.0352	4.4824	3.3234	2.8784	17.2300 
1167.776	0.0020	0.1406	1.0508	4.4714	3.3453	2.9553	17.2300 
1167.878	0.0063	0.1157	1.0171	4.4385	3.3289	3.0817	17.2200 
1167.890	0.0127	0.1494	1.0190	4.4165	3.3289	3.1586	17.2200 
1167.890	0.0117	0.1226	1.0078	4.4055	3.3179	3.2739	17.2300 
1167.890	0.0073	0.1079	1.0039	4.3781	3.3124	3.3948	17.2300 
1167.890	-0.0024	0.1450	1.0381	4.3671	3.3398	3.4387	17.2100 
1167.914	-0.0044	0.1167	1.0425	4.3671	3.3508	3.5156	17.2300 
1167.914	-0.0010	0.1157	1.0361	4.3616	3.3453	3.6145	17.2300 
1167.937	0.0024	0.1431	1.0361	4.3671	3.3453	3.6859	17.2200 
1167.953	0.0063	0.1255	1.0186	4.3945	3.3179	3.8232	17.2200 
1167.977	0.0034	0.1274	1.0176	4.4055	3.3014	3.9386	17.2300 
1168.072	0.0078	0.1499	1.0259	4.4330	3.2959	4.0375	17.2300 
1168.092	0.0151	0.1089	1.0083	4.4440	3.2520	4.2133	17.2400 
1168.092	0.0166	0.1328	1.0249	4.4440	3.2355	4.3121	17.2400 
1168.092	0.0112	0.1323	1.0415	4.4604	3.2190	4.4275	17.2500 
1168.092	0.0117	0.1196	1.0229	4.4659	3.1860	4.5593	17.2300 
1168.110	0.0151	0.1445	1.0215	4.4824	3.1750	4.6582	17.2200 
1168.132	0.0112	0.1304	1.0264	4.4989	3.1641	4.7900	17.2100 
1168.146	0.0098	0.1240	1.0356	4.4934	3.1641	4.9219	17.2200 
1168.174	0.0186	0.1372	1.0332	4.4824	3.1586	5.0317	17.2200 
1168.174	0.0293	0.1221	1.0156	4.4824	3.1256	5.1581	17.2300 
1168.275	0.0249	0.1235	1.0234	4.4769	3.1146	5.2460	17.2300 
1168.311	0.0229	0.1377	1.0278	4.4769	3.1146	5.3064	17.2400 
1168.312	0.0273	0.1240	1.0273	4.4714	3.1091	5.3998	17.2400 
1168.312	0.0278	0.1255	1.0313	4.4550	3.1036	5.4657	17.2300 
1168.312	0.0190	0.1221	1.0327	4.4495	3.1146	5.5151	17.2500 
1168.312	0.0059	0.1094	1.0386	4.4440	3.1256	5.5646	17.2200 
1168.333	0.0078	0.1060	1.0249	4.4275	3.1256	5.5975	17.2600 
1168.333	0.0210	0.1255	1.0200	4.4220	3.1201	5.6195	17.2300 
1168.354	0.0273	0.1221	1.0259	4.4220	3.1036	5.6580	17.2300 
1168.369	0.0259	0.1138	1.0298	4.4220	3.0817	5.6964	17.2500 
1168.473	0.0273	0.1265	1.0283	4.4220	3.0817	5.7074	17.2300 
1168.490	0.0259	0.1133	1.0225	4.4220	3.0707	5.7458	17.2400 
1168.490	0.0249	0.1104	1.0308	4.4165	3.0762	5.7843	17.2400 
1168.490	0.0215	0.1182	1.0361	4.4110	3.0817	5.8118	17.2400 
1168.490	0.0166	0.1030	1.0239	4.4055	3.0817	5.8557	17.2400 
1168.491	0.0171	0.1187	1.0244	4.3945	3.0927	5.8777	17.2500 
1168.510	0.0161	0.1221	1.0283	4.4110	3.1036	5.8997	17.2500 
1168.529	0.0151	0.0986	1.0288	4.4275	3.0981	5.9601	17.2700 
1168.550	0.0146	0.1226	1.0371	4.4440	3.1091	5.9875	17.2500 
1168.571	0.0200	0.1318	1.0200	4.4714	3.1091	6.0205	17.2600 
1168.671	0.0249	0.1216	1.0137	4.4824	3.1036	6.0974	17.2400 
1168.689	0.0137	0.1211	1.0269	4.4879	3.1201	6.1469	17.2500 
1168.689	0.0137	0.1284	1.0342	4.4934	3.1421	6.1743	17.2700 
1168.689	0.0166	0.1157	1.0278	4.4934	3.1421	6.2292	17.2600 
1168.689	0.0132	0.1016	1.0234	4.4769	3.1421	6.2897	17.2400 
1168.689	0.0151	0.1328	1.0278	4.4604	3.1531	6.2952	17.2500 
1168.709	0.0210	0.1318	1.0254	4.4550	3.1421	6.3171	17.2500 
1168.730	0.0220	0.1050	1.0225	4.4440	3.1201	6.3721	17.2500 
1168.749	0.0190	0.1182	1.0239	4.4275	3.1091	6.3721	17.2600 
1168.767	0.0195	0.1318	1.0332	4.4165	3.1091	6.3556	17.2600 
1168.869	0.0244	0.1201	1.0293	4.4055	3.0927	6.3831	17.2500 
1168.889	0.0264	0.1147	1.0259	4.3835	3.0762	6.4105	17.2500 
1168.889	0.0225	0.1201	1.0273	4.3726	3.0762	6.3995	17.2600 
1168.889	0.0171	0.1162	1.0254	4.3616	3.0652	6.3885	17.2500 
1168.889	0.0044	0.0952	1.0254	4.3341	3.0542	6.3885	17.2600 
1168.889	0.0078	0.1099	1.0259	4.3121	3.0487	6.3776	17.2500 
1168.909	0.0264	0.1221	1.0317	4.3066	3.0157	6.3995	17.2600 
1168.929	0.0288	0.1104	1.0244	4.2957	2.9498	6.4600	17.2500 
1168.950	0.0259	0.1152	1.0254	4.2792	2.9114	6.4984	17.2500 
1168.971	0.0234	0.1152	1.0391	4.2682	2.8894	6.5149	17.2500 
1169.087	0.0220	0.0928	1.0313	4.2572	2.8619	6.5588	17.2500 
1169.106	0.0225	0.1255	1.0269	4.2627	2.8564	6.5424	17.2400 
1169.106	0.0249	0.1069	1.0317	4.2682	2.8290	6.5808	17.2600 
1169.106	0.0220	0.0850	1.0249	4.2572	2.7960	6.6357	17.2600 
1169.107	0.0229	0.1245	1.0371	4.2517	2.7850	6.6302	17.2500 
1169.107	0.0264	0.1011	1.0254	4.2627	2.7521	6.6797	17.2700 
1169.107	0.0249	0.1099	1.0278	4.2682	2.7356	6.7072	17.2600 
1169.128	0.0244	0.1279	1.0332	4.2957	2.7356	6.7126	17.2600 
1169.146	0.0249	0.0913	1.0303	4.3011	2.7081	6.7841	17.2800 
1169.164	0.0239	0.1074	1.0381	4.3011	2.6971	6.8170	17.2600 
1169.188	0.0234	0.1104	1.0298	4.3176	2.6862	6.8555	17.2700 
1169.288	0.0229	0.0938	1.0298	4.3396	2.6752	6.9159	17.2700 
1169.307	0.0166	0.1362	1.0444	4.3671	2.6971	6.9214	17.2800 
1169.307	0.0186	0.1152	1.0381	4.4000	2.6971	6.9983	17.2900 
1169.307	0.0205	0.0801	1.0171	4.4110	2.6862	7.1246	17.2800 
1169.307	0.0288	0.1343	1.0166	4.4385	2.6971	7.1741	17.2700 
1169.307	0.0273	0.1108	1.0117	4.4769	2.6752	7.2894	17.2700 
1169.323	0.0220	0.0898	1.0146	4.4769	2.6532	7.4377	17.2600 
1169.344	0.0215	0.1221	1.0454	4.4824	2.6587	7.5311	17.2600 
1169.365	0.0259	0.1211	1.0396	4.4989	2.6422	7.6410	17.2700 
1169.385	0.0298	0.1162	1.0303	4.5264	2.6147	7.7618	17.2700 
1169.487	0.0225	0.1074	1.0229	4.5483	2.5928	7.8772	17.2800 
1169.505	0.0220	0.1221	1.0171	4.5703	2.5928	7.9706	17.2800 
1169.506	0.0269	0.1143	1.0283	4.5868	2.5818	8.0695	17.2600 
1169.506	0.0356	0.1191	1.0186	4.5923	2.5488	8.1628	17.2700 
1169.506	0.0405	0.1304	1.0342	4.6143	2.5269	8.2123	17.2800 
1169.506	0.0298	0.1006	1.0229	4.6307	2.4829	8.2617	17.2700 
1169.524	0.0220	0.0918	1.0220	4.6417	2.4445	8.2672	17.2700 
1169.544	0.0234	0.1074	1.0259	4.6637	2.4280	8.2178	17.2700 
1169.565	0.0278	0.1147	1.0396	4.6912	2.4225	8.1738	17.2800 
1169.582	0.0293	0.1011	1.0308	4.7241	2.3895	8.1683	17.2700 
1169.603	0.0273	0.1206	1.0425	4.7626	2.3785	8.1464	17.2700 
1169.630	0.0361	0.1465	1.0361	4.8230	2.3621	8.1464	17.2800 
1169.715	0.0430	0.1216	1.0225	4.8724	2.3236	8.2123	17.2700 
1169.721	0.0425	0.1206	1.0151	4.9054	2.2961	8.2672	17.2800 
1169.721	0.0366	0.1304	1.0342	4.9384	2.3016	8.2562	17.2800 
1169.721	0.0259	0.1089	1.0239	4.9658	2.2961	8.2617	17.2900 
1169.721	0.0186	0.1211	1.0356	4.9933	2.3071	8.2288	17.2800 
1169.743	0.0244	0.1260	1.0376	5.0317	2.3071	8.2178	17.2800 
1169.764	0.0337	0.1172	1.0229	5.0647	2.2852	8.2562	17.2800 
1169.872	0.0361	0.1362	1.0332	5.0977	2.2797	8.2617	17.2900 
1169.890	0.0308	0.1143	1.0176	5.1251	2.2687	8.2947	17.2800 
1169.890	0.0229	0.1240	1.0205	5.1471	2.2797	8.2947	17.2700 
1169.890	0.0205	0.1362	1.0303	5.1746	2.2906	8.2892	17.2700 
1169.890	0.0229	0.1147	1.0195	5.1855	2.2632	8.3441	17.2800 
1169.890	0.0303	0.1284	1.0239	5.1965	2.2522	8.3771	17.3000 
1169.913	0.0288	0.1226	1.0273	5.2075	2.2357	8.4210	17.2900 
1169.924	0.0283	0.1079	1.0239	5.2020	2.2137	8.4650	17.2900 
1169.945	0.0308	0.1328	1.0337	5.2075	2.2028	8.4705	17.2700 
1169.969	0.0415	0.1187	1.0210	5.2295	2.1698	8.5254	17.3000 
1170.054	0.0396	0.1104	1.0186	5.2405	2.1368	8.5968	17.2900 
1170.078	0.0371	0.1475	1.0347	5.2570	2.1368	8.6078	17.2800 
1170.078	0.0283	0.1162	1.0293	5.2570	2.1149	8.6627	17.2900 
1170.078	0.0117	0.0796	1.0020	5.2240	2.1259	8.6957	17.2800 
1170.078	0.0142	0.1270	1.0283	5.2295	2.1918	8.6517	17.2800 
1170.094	0.0283	0.1406	1.0439	5.2789	2.2137	8.6737	17.2900 
1170.119	0.0386	0.1274	1.0151	5.3064	2.1863	8.7561	17.2900 
1170.133	0.0410	0.1230	1.0288	5.3174	2.1753	8.8275	17.2900 
1170.148	0.0308	0.0977	1.0205	5.3339	2.1753	8.8934	17.2800 
1170.168	0.0337	0.1504	1.0151	5.3558	2.2083	8.8934	17.2900 
1170.279	0.0415	0.1816	1.0313	5.3998	2.2247	8.8989	17.3000 
1170.288	0.0332	0.0903	1.0205	5.4108	2.1863	9.0198	17.3000 
1170.288	0.0298	0.1060	1.0376	5.3778	2.1808	9.0582	17.2900 
1170.288	0.0361	0.1450	1.0249	5.3723	2.1918	9.0363	17.2700 
1170.289	0.0337	0.1084	1.0073	5.3558	2.1698	9.0912	17.3100 
1170.289	0.0288	0.1475	1.0381	5.3284	2.1918	9.0802	17.2900 
1170.307	0.0269	0.1323	1.0342	5.3119	2.1918	9.0967	17.2700 
1170.341	0.0239	0.1060	1.0229	5.2734	2.1753	9.1406	17.3000 
1170.341	0.0269	0.1392	1.0342	5.2460	2.1918	9.1296	17.2900 
1170.360	0.0327	0.1030	1.0249	5.2240	2.1698	9.1626	17.3000 
1170.377	0.0332	0.1045	1.0303	5.1910	2.1533	9.1901	17.3000 
1170.397	0.0386	0.1357	1.0313	5.1801	2.1478	9.1681	17.3000 
1170.502	0.0376	0.1094	1.0264	5.1801	2.1204	9.1956	17.3000 
1170.537	0.0391	0.1323	1.0273	5.1746	2.1094	9.1901	17.3100 
1170.537	0.0410	0.1279	1.0293	5.1801	2.0984	9.1791	17.3000 
1170.537	0.0327	0.1040	1.0142	5.1691	2.0874	9.1791	17.3200 
1170.537	0.0259	0.1230	1.0386	5.1581	2.0984	9.1241	17.3100 
1170.537	0.0210	0.1138	1.0259	5.1636	2.1039	9.0912	17.3100 
1170.557	0.0327	0.1245	1.0288	5.1581	2.0984	9.0747	17.3000 
1170.577	0.0381	0.1177	1.0229	5.1636	2.0819	9.0857	17.3400 
1170.592	0.0317	0.1094	1.0254	5.1636	2.0654	9.0967	17.3300 
1170.606	0.0391	0.1436	1.0210	5.1636	2.0709	9.0582	17.3200 
1170.707	0.0269	0.0991	1.0273	5.1416	2.0654	9.0802	17.3200 
1170.725	0.0234	0.0962	1.0239	5.1031	2.0764	9.0637	17.3300 
1170.726	0.0293	0.1470	1.0420	5.0922	2.1039	9.0143	17.3200 
1170.726	0.0298	0.1021	1.0176	5.0702	2.0764	9.0912	17.3300 
1170.726	0.0327	0.1182	1.0210	5.0372	2.0764	9.1022	17.3200 
1170.727	0.0356	0.1401	1.0361	5.0262	2.0929	9.0747	17.3200 
1170.743	0.0327	0.0913	1.0229	4.9988	2.0764	9.1187	17.3200 
1170.758	0.0347	0.1245	1.0386	4.9768	2.1039	9.0912	17.3400 
1170.774	0.0337	0.1113	1.0298	4.9658	2.0984	9.1022	17.3500 
1170.797	0.0303	0.0967	1.0254	4.9438	2.0929	9.1241	17.3300 
1170.814	0.0342	0.1221	1.0361	4.9438	2.1094	9.1132	17.3300 
1170.834	0.0356	0.1060	1.0166	4.9493	2.0984	9.1406	17.3200 
1170.940	0.0313	0.1270	1.0269	4.9493	2.1149	9.1351	17.3200 
1170.974	0.0269	0.1201	1.0254	4.9548	2.1259	9.1461	17.3400 
1170.974	0.0283	0.1035	1.0352	4.9438	2.1313	9.1736	17.3300 
1170.974	0.0332	0.1255	1.0313	4.9384	2.1423	9.1846	17.3400 
1170.974	0.0313	0.1074	1.0249	4.9384	2.1368	9.2175	17.3400 
1170.974	0.0278	0.1128	1.0298	4.9384	2.1423	9.2395	17.3300 
1170.975	0.0249	0.1133	1.0259	4.9384	2.1478	9.2505	17.3300 
1170.994	0.0269	0.1021	1.0239	4.9274	2.1478	9.2889	17.3300 
1171.097	0.0273	0.1182	1.0308	4.9219	2.1588	9.2999	17.3400 
1171.106	0.0283	0.1104	1.0269	4.9164	2.1588	9.3329	17.3500 
1171.106	0.0308	0.1118	1.0273	4.9164	2.1533	9.3604	17.3700 
1171.106	0.0303	0.1182	1.0288	4.9219	2.1588	9.3768	17.3600 
1171.106	0.0269	0.1094	1.0337	4.9219	2.1533	9.3988	17.3600 
1171.125	0.0273	0.1094	1.0332	4.9164	2.1478	9.4153	17.3400 
1171.153	0.0327	0.1162	1.0244	4.9164	2.1368	9.4318	17.3500 
1171.174	0.0313	0.1079	1.0225	4.9219	2.1149	9.4647	17.3600 
1171.174	0.0288	0.1143	1.0273	4.9329	2.1094	9.4757	17.3500 
1171.194	0.0288	0.1211	1.0249	4.9493	2.0984	9.4757	17.3400 
1171.217	0.0259	0.1060	1.0210	4.9548	2.0819	9.4867	17.3700 
1171.249	0.0249	0.1104	1.0356	4.9548	2.0709	9.4757	17.3600 
1171.273	0.0327	0.1187	1.0313	4.9603	2.0544	9.4647	17.3700 
1171.273	0.0283	0.1079	1.0181	4.9603	2.0215	9.4812	17.3700 
1171.372	0.0298	0.1172	1.0259	4.9603	2.0105	9.4702	17.3600 
1171.393	0.0308	0.1123	1.0278	4.9548	1.9995	9.4702	17.3600 
1171.393	0.0347	0.1118	1.0322	4.9548	1.9775	9.4757	17.3700 
1171.393	0.0313	0.1123	1.0386	4.9548	1.9666	9.4757	17.3600 
1171.393	0.0288	0.1011	1.0327	4.9603	1.9501	9.4702	17.3500 
1171.393	0.0308	0.1094	1.0322	4.9603	1.9391	9.4482	17.3500 
1171.414	0.0356	0.1089	1.0303	4.9823	1.9226	9.4318	17.3600 
1171.507	0.0405	0.1108	1.0234	5.0098	1.9006	9.4208	17.3600 
1171.524	0.0381	0.1265	1.0298	5.0372	1.8951	9.3878	17.3600 
1171.524	0.0366	0.1099	1.0273	5.0702	1.8842	9.3823	17.3800 
1171.524	0.0361	0.1221	1.0259	5.0977	1.8787	9.3549	17.3700 
1171.524	0.0361	0.1279	1.0264	5.1251	1.8787	9.3329	17.3800 
1171.541	0.0327	0.0981	1.0249	5.1361	1.8732	9.3549	17.3800 
1171.570	0.0313	0.1230	1.0293	5.1471	1.9061	9.3219	17.3700 
1171.588	0.0356	0.1289	1.0249	5.1746	1.9336	9.2999	17.3800 
1171.610	0.0410	0.1104	1.0220	5.1910	1.9501	9.3164	17.3700 
1171.631	0.0405	0.1318	1.0410	5.2075	1.9885	9.2780	17.3700 
1171.647	0.0371	0.1270	1.0342	5.2350	2.0105	9.2560	17.3900 
1171.662	0.0313	0.1138	1.0234	5.2460	2.0215	9.2505	17.3800 
1171.800	0.0337	0.1333	1.0176	5.2460	2.0544	9.2175	17.3800 
1171.801	0.0356	0.1304	1.0210	5.2570	2.0764	9.2065	17.4000 
1171.830	0.0322	0.1133	1.0210	5.2405	2.0874	9.2285	17.3900 
1171.830	0.0288	0.1143	1.0298	5.2240	2.1094	9.2395	17.3800 
1171.830	0.0278	0.1270	1.0337	5.2130	2.1313	9.2340	17.3800 
1171.830	0.0308	0.1216	1.0288	5.2075	2.1368	9.2615	17.3800 
1171.830	0.0298	0.1235	1.0264	5.1965	2.1423	9.2889	17.3900 
1171.831	0.0293	0.1343	1.0210	5.2020	2.1533	9.3054	17.3900 
1171.831	0.0273	0.1182	1.0215	5.1965	2.1588	9.3384	17.4100 
1171.849	0.0269	0.1143	1.0327	5.1801	2.1588	9.3604	17.4100 
1171.949	0.0337	0.1250	1.0283	5.1691	2.1478	9.3823	17.4000 
1171.956	0.0352	0.1147	1.0278	5.1581	2.1259	9.4208	17.3900 
1171.956	0.0342	0.1206	1.0161	5.1471	2.0984	9.4427	17.4000 
1171.956	0.0327	0.1279	1.0244	5.1471	2.0929	9.4427	17.4000 
1171.956	0.0313	0.1138	1.0308	5.1471	2.0764	9.4537	17.3900 
1171.989	0.0298	0.1099	1.0283	5.1416	2.0544	9.4702	17.4100 
1172.006	0.0293	0.1104	1.0356	5.1416	2.0380	9.4757	17.4100 
1172.029	0.0254	0.1006	1.0283	5.1471	2.0105	9.4922	17.4000 
1172.029	0.0352	0.1177	1.0210	5.1581	1.9885	9.4922	17.4000 
1172.047	0.0366	0.1201	1.0146	5.1855	1.9556	9.5032	17.4000 
1172.133	0.0366	0.1211	1.0278	5.2075	1.9336	9.5142	17.4200 
1172.139	0.0381	0.1270	1.0342	5.2295	1.9171	9.5251	17.4100 
1172.139	0.0366	0.1240	1.0361	5.2460	1.9006	9.5306	17.4200 
1172.139	0.0332	0.1230	1.0317	5.2570	1.8896	9.5361	17.4100